#t	Mdot	Mdisk	Rhot	Sigmaout	Kirrout	H2R	Teffout	Tirrout	Qirr2Qvisout	TphXmax	Lx	Lbol	Fx	Fbol	mU	mB	mV	mR	mI	mJ
#days	g/s	g	Rsun	g/cm^2	float	float	K	K	float	keV	erg/s	erg/s	erg/s/cm^2	erg/s/cm^2	mag	mag	mag	mag	mag	mag
### Columns description
# 1=t [days] : Time moment
# 2=Mdot [g/s] : Accretion rate onto central object
# 3=Mdisk [g] : Mass of the hot disk
# 4=Rhot [Rsun] : Radius of the hot disk
# 5=Sigmaout [g/cm^2] : Surface density at the outer radius of the hot disk
# 6=Kirrout [float] : Irradiation coefficient Kirr at the outer radius of the hot disk
# 7=H2R [float] : Relative semiheight at the outer radius of the hot disk
# 8=Teffout [K] : Effective tempreture at the outer radius of the hot disk
# 9=Tirrout [K] : Irradiation temperature (Qirr / sigma_SB)^1/4 at the outer radius of the hot disk
# 10=Qirr2Qvisout [float] : Irradiation flux to viscous flux ratio at the outer radius of the hot disk
# 11=TphXmax [keV] : Maximum effective temperature of the disk
# 12=Lx [erg/s] : X-ray luminosity of the disk in the given energy range [emin, emax]
# 13=Lbol [erg/s] : Bolometric luminosity of the disk
# 14=Fx [erg/s/cm^2] : X-ray flux of the disk in the given energy range [emin, emax]
# 15=Fbol [erg/s/cm^2] : Bolometric flux of the disk
# 16=mU [mag] : TO BE REMOVED
# 17=mB [mag] : TO BE REMOVED
# 18=mV [mag] : TO BE REMOVED
# 19=mR [mag] : TO BE REMOVED
# 20=mI [mag] : TO BE REMOVED
# 21=mJ [mag] : TO BE REMOVED
### Parameters
# Cirr=0.0002
# Cirrcold=0
# F0=2e+38
# Mdotout=0
# Mopt=0.5
# Mx=5
# Nx=1000
# Qirr2Qvishot=1
# Thot=10000
# Topt=0
# alpha=0.25
# angulardistdisk=isotropic
# boundcond=Tirr
# colourfactor=1.7
# dir=.
# distance=10
# emax=12
# emin=1
# ephemerist0=0
# gaussmu=1
# gausssigma=0.25
# gridscale=log
# h2rcold=0
# inclination=0
# initialcond=quasistat
# inittime=0
# irrindex=0
# irrindexcold=0
# kerr=0
# opacity=Kramers
# period=0.25
# powerorder=6
# precision=6
# prefix=quasistat_Thot_Cirr_Tirr_Qirr2Qvis
# rochelobefill=1
# staralbedo=0
# starlod=3
# tau=0.25
# time=100
### Derived values
# alpha_cold = 0.025
# Tidal radius = 1.53444 Rsun
# ISCO radius = 4.43015e+06 cm
0	3.42054e+19	8.00857e+25	1.53444	1229.56	0.0002	0.0996553	16303	14427.6	1.58631	1.58207	1.47776e+39	1.75818e+39	1.23507e-07	1.46944e-07	13.3477	14.4981	14.7307	14.8724	15.3032	15.2498
0.25	3.37589e+19	7.93583e+25	1.53444	1218.27	0.0002	0.0994585	16249.5	14380.3	1.58637	1.57688	1.45774e+39	1.73523e+39	1.21834e-07	1.45026e-07	13.3544	14.5042	14.7363	14.8775	15.3078	15.2542
0.5	3.33221e+19	7.86403e+25	1.53444	1207.2	0.0002	0.0992642	16196.6	14333.5	1.5864	1.57176	1.43816e+39	1.71278e+39	1.20197e-07	1.4315e-07	13.361	14.5102	14.7419	14.8826	15.3125	15.2586
0.75	3.28933e+19	7.79315e+25	1.53444	1196.29	0.0002	0.0990714	16144.2	14287.2	1.58642	1.56668	1.41893e+39	1.69074e+39	1.18591e-07	1.41308e-07	13.3676	14.5163	14.7474	14.8877	15.3171	15.2629
1	3.24719e+19	7.72318e+25	1.53444	1185.53	0.0002	0.0988798	16092.3	14241.2	1.58644	1.56163	1.40004e+39	1.66908e+39	1.17012e-07	1.39497e-07	13.3742	14.5223	14.753	14.8927	15.3218	15.2673
1.25	3.20577e+19	7.65411e+25	1.53444	1174.92	0.0002	0.0986893	16040.7	14195.6	1.58646	1.55663	1.38147e+39	1.64779e+39	1.1546e-07	1.37718e-07	13.3808	14.5284	14.7585	14.8978	15.3264	15.2716
1.5	3.16504e+19	7.58591e+25	1.53444	1164.44	0.0002	0.0985	15989.5	14150.3	1.58648	1.55166	1.36321e+39	1.62685e+39	1.13934e-07	1.35968e-07	13.3873	14.5344	14.764	14.9028	15.331	15.276
1.75	3.12499e+19	7.51857e+25	1.53444	1154.09	0.0002	0.0983119	15938.6	14105.3	1.5865	1.54673	1.34526e+39	1.60627e+39	1.12433e-07	1.34248e-07	13.3939	14.5404	14.7695	14.9078	15.3356	15.2803
2	3.0856e+19	7.45208e+25	1.53444	1143.88	0.0002	0.0981248	15888.1	14060.7	1.58652	1.54183	1.32761e+39	1.58602e+39	1.10958e-07	1.32556e-07	13.4004	14.5464	14.7749	14.9128	15.3401	15.2846
2.25	3.04686e+19	7.38643e+25	1.53444	1133.8	0.0002	0.0979388	15838	14016.3	1.58654	1.53697	1.31024e+39	1.56611e+39	1.09506e-07	1.30891e-07	13.4069	14.5523	14.7804	14.9178	15.3447	15.2889
2.5	3.00874e+19	7.3216e+25	1.53444	1123.84	0.0002	0.0977539	15788.2	13972.3	1.58656	1.53214	1.29316e+39	1.54651e+39	1.08079e-07	1.29254e-07	13.4134	14.5583	14.7858	14.9228	15.3492	15.2931
2.75	2.97124e+19	7.25757e+25	1.53444	1114.01	0.0002	0.09757	15738.8	13928.5	1.58658	1.52734	1.27635e+39	1.52724e+39	1.06674e-07	1.27643e-07	13.4199	14.5642	14.7913	14.9277	15.3537	15.2974
3	2.93435e+19	7.19434e+25	1.53444	1104.3	0.0002	0.0973871	15689.7	13885.1	1.58659	1.52258	1.25982e+39	1.50827e+39	1.05292e-07	1.26058e-07	13.4264	14.5701	14.7967	14.9327	15.3583	15.3017
3.25	2.89805e+19	7.1319e+25	1.53444	1094.71	0.0002	0.0972053	15640.9	13841.9	1.5866	1.51785	1.24355e+39	1.48961e+39	1.03933e-07	1.24498e-07	13.4328	14.5761	14.8021	14.9376	15.3628	15.3059
3.5	2.86232e+19	7.07022e+25	1.53444	1085.24	0.0002	0.0970245	15592.5	13799.1	1.58662	1.51315	1.22755e+39	1.47125e+39	1.02595e-07	1.22964e-07	13.4393	14.5819	14.8075	14.9425	15.3673	15.3101
3.75	2.82717e+19	7.0093e+25	1.53444	1075.89	0.0002	0.0968447	15544.4	13756.5	1.58663	1.50848	1.2118e+39	1.45318e+39	1.01279e-07	1.21453e-07	13.4457	14.5878	14.8128	14.9474	15.3717	15.3143
4	2.79257e+19	6.94913e+25	1.53444	1066.65	0.0002	0.0966659	15496.6	13714.2	1.58664	1.50385	1.1963e+39	1.4354e+39	9.99838e-08	1.19967e-07	13.4521	14.5937	14.8182	14.9523	15.3762	15.3185
4.25	2.75852e+19	6.88968e+25	1.53444	1057.53	0.0002	0.0964881	15449.1	13672.2	1.58665	1.49924	1.18105e+39	1.4179e+39	9.87092e-08	1.18504e-07	13.4585	14.5996	14.8235	14.9572	15.3806	15.3227
4.5	2.72501e+19	6.83097e+25	1.53444	1048.51	0.0002	0.0963113	15402	13630.5	1.58666	1.49467	1.16604e+39	1.40067e+39	9.74548e-08	1.17065e-07	13.4649	14.6054	14.8289	14.9621	15.3851	15.3269
4.75	2.69202e+19	6.77296e+25	1.53444	1039.61	0.0002	0.0961354	15355.1	13589.1	1.58667	1.49012	1.15127e+39	1.38371e+39	9.62203e-08	1.15647e-07	13.4712	14.6112	14.8342	14.9669	15.3895	15.331
5	2.65954e+19	6.71565e+25	1.53444	1030.81	0.0002	0.0959605	15308.6	13547.9	1.58667	1.48561	1.13673e+39	1.36702e+39	9.50052e-08	1.14252e-07	13.4776	14.617	14.8395	14.9718	15.3939	15.3352
5.25	2.62758e+19	6.65903e+25	1.53444	1022.12	0.0002	0.0957866	15262.4	13507	1.58668	1.48112	1.12242e+39	1.35059e+39	9.38092e-08	1.12879e-07	13.4839	14.6228	14.8448	14.9766	15.3983	15.3393
5.5	2.59611e+19	6.60309e+25	1.53444	1013.53	0.0002	0.0956135	15216.5	13466.4	1.58668	1.47667	1.10834e+39	1.33442e+39	9.2632e-08	1.11527e-07	13.4903	14.6286	14.8501	14.9814	15.4027	15.3434
5.75	2.56512e+19	6.54782e+25	1.53444	1005.05	0.0002	0.0954415	15170.9	13426	1.58669	1.47224	1.09447e+39	1.31849e+39	9.14732e-08	1.10196e-07	13.4966	14.6344	14.8553	14.9862	15.4071	15.3475
6	2.53462e+19	6.4932e+25	1.53444	996.662	0.0002	0.0952703	15125.6	13385.9	1.58669	1.46785	1.08082e+39	1.30281e+39	9.03324e-08	1.08885e-07	13.5029	14.6402	14.8606	14.991	15.4114	15.3516
6.25	2.50458e+19	6.43924e+25	1.53444	988.378	0.0002	0.0951	15080.5	13346.1	1.5867	1.46348	1.06739e+39	1.28737e+39	8.92093e-08	1.07595e-07	13.5091	14.6459	14.8658	14.9958	15.4158	15.3557
6.5	2.475e+19	6.3859e+25	1.53444	980.191	0.0002	0.0949307	15035.8	13306.5	1.5867	1.45914	1.05416e+39	1.27217e+39	8.81036e-08	1.06324e-07	13.5154	14.6516	14.8711	15.0006	15.4201	15.3598
6.75	2.44588e+19	6.3332e+25	1.53444	972.101	0.0002	0.0947623	14991.4	13267.2	1.5867	1.45483	1.04113e+39	1.2572e+39	8.70151e-08	1.05073e-07	13.5217	14.6574	14.8763	15.0053	15.4245	15.3639
7	2.41719e+19	6.28112e+25	1.53444	964.106	0.0002	0.0945947	14947.2	13228.1	1.58671	1.45054	1.02831e+39	1.24245e+39	8.59431e-08	1.03841e-07	13.5279	14.6631	14.8815	15.0101	15.4288	15.3679
7.25	2.38894e+19	6.22964e+25	1.53444	956.204	0.0002	0.094428	14903.4	13189.3	1.58671	1.44628	1.01568e+39	1.22793e+39	8.48878e-08	1.02628e-07	13.5341	14.6688	14.8867	15.0148	15.4331	15.372
7.5	2.36112e+19	6.17876e+25	1.53444	948.395	0.0002	0.0942622	14859.8	13150.7	1.58671	1.44206	1.00324e+39	1.21363e+39	8.38485e-08	1.01432e-07	13.5404	14.6744	14.8919	15.0195	15.4374	15.376
7.75	2.33372e+19	6.12847e+25	1.53444	940.676	0.0002	0.0940973	14816.5	13112.4	1.58671	1.43785	9.90999e+38	1.19955e+39	8.28252e-08	1.00255e-07	13.5466	14.6801	14.897	15.0242	15.4417	15.38
8	2.30673e+19	6.07877e+25	1.53444	933.046	0.0002	0.0939332	14773.5	13074.3	1.58671	1.43368	9.7894e+38	1.18568e+39	8.18173e-08	9.90957e-08	13.5527	14.6858	14.9022	15.0289	15.4459	15.384
8.25	2.28014e+19	6.02964e+25	1.53444	925.505	0.0002	0.09377	14730.7	13036.5	1.58672	1.42953	9.67064e+38	1.17201e+39	8.08248e-08	9.79535e-08	13.5589	14.6914	14.9073	15.0336	15.4502	15.388
8.5	2.25395e+19	5.98107e+25	1.53444	918.05	0.0002	0.0936077	14688.2	12998.9	1.58672	1.42541	9.55369e+38	1.15855e+39	7.98473e-08	9.68284e-08	13.5651	14.6971	14.9125	15.0383	15.4544	15.392
8.75	2.22815e+19	5.93306e+25	1.53444	910.68	0.0002	0.0934461	14646	12961.5	1.58672	1.42131	9.43848e+38	1.14528e+39	7.88844e-08	9.57199e-08	13.5712	14.7027	14.9176	15.0429	15.4587	15.3959
9	2.20273e+19	5.88559e+25	1.53444	903.395	0.0002	0.0932854	14604	12924.4	1.58672	1.41724	9.32502e+38	1.13222e+39	7.79361e-08	9.46279e-08	13.5774	14.7083	14.9227	15.0476	15.4629	15.3999
9.25	2.17769e+19	5.83867e+25	1.53444	896.192	0.0002	0.0931256	14562.4	12887.5	1.58672	1.41319	9.21325e+38	1.11935e+39	7.7002e-08	9.3552e-08	13.5835	14.7139	14.9278	15.0522	15.4671	15.4039
9.5	2.15301e+19	5.79228e+25	1.53444	889.071	0.0002	0.0929665	14520.9	12850.9	1.58672	1.40917	9.10315e+38	1.10666e+39	7.60818e-08	9.2492e-08	13.5896	14.7195	14.9329	15.0568	15.4713	15.4078
9.75	2.1287e+19	5.74641e+25	1.53444	882.03	0.0002	0.0928082	14479.8	12814.4	1.58672	1.40518	8.9947e+38	1.09416e+39	7.51754e-08	9.14474e-08	13.5957	14.725	14.938	15.0615	15.4755	15.4117
10	2.10474e+19	5.70105e+25	1.53444	875.069	0.0002	0.0926508	14438.8	12778.2	1.58672	1.4012	8.88785e+38	1.08185e+39	7.42823e-08	9.04181e-08	13.6018	14.7306	14.943	15.0661	15.4797	15.4156
10.25	2.08113e+19	5.65621e+25	1.53444	868.186	0.0002	0.0924941	14398.2	12742.2	1.58672	1.39726	8.78259e+38	1.06971e+39	7.34026e-08	8.94039e-08	13.6078	14.7362	14.9481	15.0707	15.4839	15.4195
10.5	2.05786e+19	5.61187e+25	1.53444	861.379	0.0002	0.0923383	14357.8	12706.5	1.58672	1.39334	8.67887e+38	1.05775e+39	7.25358e-08	8.84043e-08	13.6139	14.7417	14.9531	15.0752	15.488	15.4234
10.75	2.03493e+19	5.56802e+25	1.53444	854.649	0.0002	0.0921832	14317.6	12670.9	1.58672	1.38944	8.57669e+38	1.04597e+39	7.16818e-08	8.74192e-08	13.6199	14.7472	14.9582	15.0798	15.4922	15.4273
11	2.01233e+19	5.52466e+25	1.53444	847.993	0.0002	0.0920289	14277.7	12635.6	1.58672	1.38556	8.47601e+38	1.03435e+39	7.08403e-08	8.64483e-08	13.626	14.7527	14.9632	15.0844	15.4963	15.4312
11.25	1.99005e+19	5.48178e+25	1.53444	841.411	0.0002	0.0918753	14238	12600.5	1.58672	1.38171	8.3768e+38	1.0229e+39	7.00111e-08	8.54913e-08	13.632	14.7582	14.9682	15.0889	15.5004	15.4351
11.5	1.96809e+19	5.43937e+25	1.53444	834.902	0.0002	0.0917226	14198.6	12565.6	1.58673	1.37789	8.27904e+38	1.01161e+39	6.91941e-08	8.45481e-08	13.638	14.7637	14.9732	15.0935	15.5046	15.4389
11.75	1.94645e+19	5.39743e+25	1.53444	828.464	0.0002	0.0915706	14159.4	12530.9	1.58673	1.37408	8.1827e+38	1.00049e+39	6.83889e-08	8.36183e-08	13.644	14.7692	14.9782	15.098	15.5087	15.4428
12	1.92512e+19	5.35594e+25	1.53444	822.097	0.0002	0.0914193	14120.4	12496.4	1.58673	1.3703	8.08775e+38	9.89522e+38	6.75954e-08	8.27017e-08	13.65	14.7747	14.9831	15.1025	15.5128	15.4466
12.25	1.90408e+19	5.31492e+25	1.53444	815.799	0.0002	0.0912688	14081.7	12462.1	1.58673	1.36654	7.99418e+38	9.78711e+38	6.68133e-08	8.17982e-08	13.6559	14.7801	14.9881	15.107	15.5168	15.4504
12.5	1.88335e+19	5.27433e+25	1.53444	809.57	0.0002	0.091119	14043.2	12428.1	1.58673	1.36281	7.90196e+38	9.68053e+38	6.60426e-08	8.09074e-08	13.6619	14.7856	14.9931	15.1115	15.5209	15.4542
12.75	1.8629e+19	5.23419e+25	1.53444	803.409	0.0002	0.0909699	14004.9	12394.2	1.58673	1.3591	7.81107e+38	9.57545e+38	6.5283e-08	8.00292e-08	13.6679	14.791	14.998	15.116	15.525	15.458
13	1.84275e+19	5.19448e+25	1.53444	797.314	0.0002	0.0908216	13966.9	12360.5	1.58673	1.3554	7.72148e+38	9.47185e+38	6.45342e-08	7.91633e-08	13.6738	14.7964	15.0029	15.1205	15.529	15.4618
13.25	1.82287e+19	5.15521e+25	1.53444	791.285	0.0002	0.090674	13929.1	12327.1	1.58673	1.35173	7.63317e+38	9.3697e+38	6.37961e-08	7.83095e-08	13.6797	14.8018	15.0079	15.125	15.5331	15.4656
13.5	1.80328e+19	5.11635e+25	1.53444	785.321	0.0002	0.0905271	13891.5	12293.8	1.58673	1.34809	7.54612e+38	9.26897e+38	6.30685e-08	7.74677e-08	13.6856	14.8072	15.0128	15.1294	15.5371	15.4694
13.75	1.78395e+19	5.07791e+25	1.53444	779.42	0.0002	0.0903809	13854.1	12260.7	1.58673	1.34446	7.46031e+38	9.16965e+38	6.23514e-08	7.66376e-08	13.6915	14.8126	15.0177	15.1339	15.5411	15.4731
14	1.7649e+19	5.03988e+25	1.53444	773.583	0.0002	0.0902355	13817	12227.9	1.58673	1.34086	7.37572e+38	9.0717e+38	6.16444e-08	7.58189e-08	13.6974	14.818	15.0226	15.1383	15.5452	15.4769
14.25	1.74611e+19	5.00225e+25	1.53444	767.808	0.0002	0.0900907	13780	12195.2	1.58673	1.33727	7.29232e+38	8.97511e+38	6.09473e-08	7.50116e-08	13.7033	14.8234	15.0274	15.1427	15.5492	15.4806
14.5	1.72757e+19	4.96503e+25	1.53444	762.094	0.0002	0.0899466	13743.3	12162.7	1.58673	1.33371	7.21009e+38	8.87984e+38	6.02601e-08	7.42155e-08	13.7092	14.8287	15.0323	15.1471	15.5532	15.4844
14.75	1.70929e+19	4.9282e+25	1.53444	756.441	0.0002	0.0898032	13706.8	12130.4	1.58673	1.33017	7.12902e+38	8.78589e+38	5.95826e-08	7.34302e-08	13.715	14.8341	15.0372	15.1516	15.5572	15.4881
15	1.69127e+19	4.89175e+25	1.53444	750.847	0.0002	0.0896605	13670.5	12098.3	1.58673	1.32665	7.04909e+38	8.69322e+38	5.89145e-08	7.26557e-08	13.7208	14.8394	15.042	15.156	15.5611	15.4918
15.25	1.67348e+19	4.85569e+25	1.53444	745.312	0.0002	0.0895184	13634.5	12066.3	1.58673	1.32315	6.97028e+38	8.60182e+38	5.82558e-08	7.18918e-08	13.7267	14.8447	15.0469	15.1603	15.5651	15.4955
15.5	1.65594e+19	4.82001e+25	1.53444	739.835	0.0002	0.0893771	13598.6	12034.6	1.58673	1.31966	6.89256e+38	8.51166e+38	5.76062e-08	7.11383e-08	13.7325	14.8501	15.0517	15.1647	15.5691	15.4992
15.75	1.63864e+19	4.7847e+25	1.53444	734.415	0.0002	0.0892364	13562.9	12003	1.58673	1.3162	6.81592e+38	8.42273e+38	5.69657e-08	7.0395e-08	13.7383	14.8554	15.0565	15.1691	15.573	15.5029
16	1.62157e+19	4.74976e+25	1.53444	729.052	0.0002	0.0890963	13527.5	11971.7	1.58673	1.31276	6.74035e+38	8.335e+38	5.63341e-08	6.96618e-08	13.7441	14.8607	15.0613	15.1734	15.5769	15.5066
16.25	1.60474e+19	4.71518e+25	1.53444	723.744	0.0002	0.0889569	13492.2	11940.5	1.58673	1.30934	6.66582e+38	8.24845e+38	5.57112e-08	6.89384e-08	13.7499	14.8659	15.0661	15.1778	15.5809	15.5103
16.5	1.58812e+19	4.68096e+25	1.53444	718.492	0.0002	0.0888182	13457.2	11909.4	1.58673	1.30594	6.59232e+38	8.16306e+38	5.50969e-08	6.82248e-08	13.7557	14.8712	15.0709	15.1821	15.5848	15.5139
16.75	1.57173e+19	4.64709e+25	1.53444	713.293	0.0002	0.0886801	13422.3	11878.6	1.58673	1.30256	6.51983e+38	8.07882e+38	5.4491e-08	6.75207e-08	13.7614	14.8765	15.0757	15.1865	15.5887	15.5176
17	1.55556e+19	4.61357e+25	1.53444	708.149	0.0002	0.0885426	13387.7	11847.9	1.58673	1.29919	6.44833e+38	7.9957e+38	5.38935e-08	6.6826e-08	13.7672	14.8817	15.0805	15.1908	15.5926	15.5212
17.25	1.53961e+19	4.5804e+25	1.53444	703.056	0.0002	0.0884058	13353.2	11817.4	1.58673	1.29585	6.37781e+38	7.91369e+38	5.33041e-08	6.61406e-08	13.7729	14.887	15.0852	15.1951	15.5965	15.5248
17.5	1.52387e+19	4.54756e+25	1.53444	698.016	0.0002	0.0882696	13318.9	11787.1	1.58673	1.29252	6.30825e+38	7.83277e+38	5.27227e-08	6.54643e-08	13.7786	14.8922	15.09	15.1994	15.6004	15.5285
17.75	1.50833e+19	4.51506e+25	1.53444	693.028	0.0002	0.0881341	13284.9	11756.9	1.58673	1.28922	6.23963e+38	7.75292e+38	5.21492e-08	6.47969e-08	13.7844	14.8974	15.0947	15.2037	15.6043	15.5321
18	1.493e+19	4.48289e+25	1.53444	688.09	0.0002	0.0879991	13251	11727	1.58673	1.28593	6.17195e+38	7.67413e+38	5.15836e-08	6.41384e-08	13.7901	14.9026	15.0995	15.208	15.6081	15.5357
18.25	1.47787e+19	4.45105e+25	1.53444	683.202	0.0002	0.0878648	13217.3	11697.1	1.58673	1.28266	6.10518e+38	7.59637e+38	5.10255e-08	6.34885e-08	13.7958	14.9078	15.1042	15.2123	15.612	15.5393
18.5	1.46294e+19	4.41952e+25	1.53444	678.363	0.0002	0.0877311	13183.8	11667.5	1.58673	1.27941	6.03931e+38	7.51963e+38	5.0475e-08	6.28471e-08	13.8015	14.913	15.1089	15.2165	15.6158	15.5429
18.75	1.44821e+19	4.38832e+25	1.53444	673.573	0.0002	0.087598	13150.4	11638	1.58673	1.27617	5.97433e+38	7.44389e+38	4.99319e-08	6.22141e-08	13.8071	14.9182	15.1136	15.2208	15.6197	15.5465
19	1.43367e+19	4.35742e+25	1.53444	668.832	0.0002	0.0874654	13117.3	11608.7	1.58673	1.27296	5.91021e+38	7.36914e+38	4.93961e-08	6.15894e-08	13.8128	14.9234	15.1183	15.225	15.6235	15.55
19.25	1.41931e+19	4.32684e+25	1.53444	664.137	0.0002	0.0873335	13084.3	11579.5	1.58673	1.26976	5.84696e+38	7.29537e+38	4.88674e-08	6.09728e-08	13.8185	14.9286	15.123	15.2293	15.6273	15.5536
19.5	1.40515e+19	4.29656e+25	1.53444	659.49	0.0002	0.0872022	13051.6	11550.5	1.58673	1.26658	5.78455e+38	7.22255e+38	4.83458e-08	6.03642e-08	13.8241	14.9337	15.1277	15.2335	15.6312	15.5571
19.75	1.39116e+19	4.26659e+25	1.53444	654.889	0.0002	0.0870715	13019	11521.7	1.58673	1.26342	5.72297e+38	7.15067e+38	4.78311e-08	5.97635e-08	13.8297	14.9389	15.1323	15.2377	15.635	15.5607
20	1.37736e+19	4.23691e+25	1.53444	650.333	0.0002	0.0869413	12986.6	11493	1.58673	1.26027	5.66221e+38	7.07972e+38	4.73233e-08	5.91705e-08	13.8354	14.944	15.137	15.2419	15.6388	15.5642
20.25	1.36373e+19	4.20752e+25	1.53444	645.823	0.0002	0.0868118	12954.3	11464.4	1.58673	1.25714	5.60225e+38	7.00967e+38	4.68221e-08	5.85851e-08	13.841	14.9491	15.1417	15.2461	15.6425	15.5678
20.5	1.35028e+19	4.17843e+25	1.53444	641.357	0.0002	0.0866828	12922.3	11436.1	1.58673	1.25403	5.54308e+38	6.94053e+38	4.63276e-08	5.80072e-08	13.8466	14.9542	15.1463	15.2503	15.6463	15.5713
20.75	1.337e+19	4.14962e+25	1.53444	636.935	0.0002	0.0865544	12890.4	11407.8	1.58673	1.25094	5.48469e+38	6.87227e+38	4.58396e-08	5.74367e-08	13.8522	14.9593	15.1509	15.2545	15.6501	15.5748
21	1.32389e+19	4.12109e+25	1.53444	632.556	0.0002	0.0864265	12858.7	11379.8	1.58673	1.24786	5.42706e+38	6.80488e+38	4.5358e-08	5.68734e-08	13.8577	14.9644	15.1555	15.2587	15.6539	15.5783
21.25	1.31094e+19	4.09284e+25	1.53444	628.22	0.0002	0.0862992	12827.1	11351.8	1.58673	1.2448	5.3702e+38	6.73834e+38	4.48827e-08	5.63173e-08	13.8633	14.9695	15.1602	15.2629	15.6576	15.5818
21.5	1.29816e+19	4.06487e+25	1.53444	623.927	0.0002	0.0861725	12795.7	11324.1	1.58673	1.24175	5.31407e+38	6.67265e+38	4.44136e-08	5.57683e-08	13.8689	14.9746	15.1648	15.267	15.6614	15.5853
21.75	1.28554e+19	4.03717e+25	1.53444	619.675	0.0002	0.0860463	12764.5	11296.5	1.58673	1.23872	5.25867e+38	6.60778e+38	4.39507e-08	5.52261e-08	13.8744	14.9797	15.1694	15.2712	15.6651	15.5888
22	1.27308e+19	4.00974e+25	1.53444	615.464	0.0002	0.0859207	12733.5	11269	1.58673	1.23571	5.204e+38	6.54373e+38	4.34937e-08	5.46908e-08	13.88	14.9847	15.174	15.2753	15.6688	15.5922
22.25	1.26078e+19	3.98257e+25	1.53444	611.294	0.0002	0.0857956	12702.6	11241.7	1.58673	1.23271	5.15003e+38	6.48049e+38	4.30426e-08	5.41623e-08	13.8855	14.9898	15.1785	15.2795	15.6726	15.5957
22.5	1.24863e+19	3.95566e+25	1.53444	607.164	0.0002	0.0856711	12671.9	11214.5	1.58673	1.22973	5.09676e+38	6.41804e+38	4.25974e-08	5.36403e-08	13.891	14.9948	15.1831	15.2836	15.6763	15.5992
22.75	1.23663e+19	3.92902e+25	1.53444	603.074	0.0002	0.0855471	12641.3	11187.4	1.58673	1.22677	5.04418e+38	6.35636e+38	4.2158e-08	5.31248e-08	13.8965	14.9999	15.1877	15.2877	15.68	15.6026
23	1.22478e+19	3.90263e+25	1.53444	599.024	0.0002	0.0854236	12610.9	11160.5	1.58673	1.22382	4.99227e+38	6.29546e+38	4.17241e-08	5.26158e-08	13.902	15.0049	15.1922	15.2918	15.6837	15.606
23.25	1.21308e+19	3.87649e+25	1.53444	595.011	0.0002	0.0853007	12580.7	11133.8	1.58673	1.22088	4.94102e+38	6.23531e+38	4.12958e-08	5.21131e-08	13.9075	15.0099	15.1968	15.2959	15.6874	15.6095
23.5	1.20152e+19	3.8506e+25	1.53444	591.037	0.0002	0.0851783	12550.6	11107.2	1.58673	1.21797	4.89044e+38	6.1759e+38	4.0873e-08	5.16166e-08	13.913	15.0149	15.2013	15.3	15.6911	15.6129
23.75	1.19011e+19	3.82495e+25	1.53444	587.101	0.0002	0.0850564	12520.7	11080.7	1.58673	1.21506	4.84049e+38	6.11723e+38	4.04556e-08	5.11262e-08	13.9185	15.0199	15.2058	15.3041	15.6947	15.6163
24	1.17883e+19	3.79955e+25	1.53444	583.202	0.0002	0.0849351	12491	11054.4	1.58673	1.21217	4.79118e+38	6.05927e+38	4.00435e-08	5.06419e-08	13.924	15.0249	15.2104	15.3082	15.6984	15.6197
24.25	1.1677e+19	3.77439e+25	1.53444	579.34	0.0002	0.0848142	12461.3	11028.2	1.58673	1.2093	4.7425e+38	6.00203e+38	3.96366e-08	5.01635e-08	13.9294	15.0299	15.2149	15.3123	15.7021	15.6231
24.5	1.1567e+19	3.74947e+25	1.53444	575.515	0.0002	0.0846939	12431.9	11002.1	1.58673	1.20644	4.69444e+38	5.94549e+38	3.92349e-08	4.96909e-08	13.9349	15.0348	15.2194	15.3164	15.7057	15.6265
24.75	1.14583e+19	3.72478e+25	1.53444	571.725	0.0002	0.0845741	12402.6	10976.2	1.58673	1.2036	4.64698e+38	5.88964e+38	3.88383e-08	4.92241e-08	13.9403	15.0398	15.2239	15.3204	15.7094	15.6299
25	1.1351e+19	3.70032e+25	1.53444	567.971	0.0002	0.0844548	12373.4	10950.4	1.58673	1.20077	4.60012e+38	5.83447e+38	3.84466e-08	4.8763e-08	13.9457	15.0448	15.2284	15.3245	15.713	15.6333
25.25	1.12449e+19	3.67609e+25	1.53444	564.251	0.0002	0.084336	12344.4	10924.7	1.58673	1.19796	4.55384e+38	5.77997e+38	3.80599e-08	4.83075e-08	13.9511	15.0497	15.2329	15.3285	15.7166	15.6367
25.5	1.11402e+19	3.65208e+25	1.53444	560.567	0.0002	0.0842176	12315.6	10899.2	1.58673	1.19516	4.50815e+38	5.72612e+38	3.7678e-08	4.78575e-08	13.9565	15.0546	15.2373	15.3325	15.7202	15.64
25.75	1.10367e+19	3.6283e+25	1.53444	556.917	0.0002	0.0840998	12286.9	10873.8	1.58673	1.19237	4.46303e+38	5.67293e+38	3.73009e-08	4.74129e-08	13.9619	15.0596	15.2418	15.3366	15.7239	15.6434
26	1.09344e+19	3.60474e+25	1.53444	553.3	0.0002	0.0839825	12258.3	10848.5	1.58673	1.1896	4.41847e+38	5.62038e+38	3.69284e-08	4.69737e-08	13.9673	15.0645	15.2462	15.3406	15.7275	15.6467
26.25	1.08334e+19	3.5814e+25	1.53444	549.717	0.0002	0.0838657	12229.9	10823.4	1.58673	1.18684	4.37446e+38	5.56846e+38	3.65606e-08	4.65397e-08	13.9727	15.0694	15.2507	15.3446	15.7311	15.6501
26.5	1.07336e+19	3.55827e+25	1.53444	546.167	0.0002	0.0837493	12201.7	10798.3	1.58673	1.1841	4.331e+38	5.51715e+38	3.61974e-08	4.6111e-08	13.9781	15.0743	15.2551	15.3486	15.7347	15.6534
26.75	1.0635e+19	3.53535e+25	1.53444	542.65	0.0002	0.0836334	12173.5	10773.5	1.58673	1.18137	4.28808e+38	5.46646e+38	3.58387e-08	4.56873e-08	13.9834	15.0792	15.2596	15.3526	15.7382	15.6567
27	1.05376e+19	3.51264e+25	1.53444	539.164	0.0002	0.083518	12145.6	10748.7	1.58673	1.17866	4.24568e+38	5.41638e+38	3.54843e-08	4.52687e-08	13.9888	15.0841	15.264	15.3566	15.7418	15.6601
27.25	1.04413e+19	3.49015e+25	1.53444	535.711	0.0002	0.0834031	12117.7	10724	1.58673	1.17595	4.20381e+38	5.36688e+38	3.51344e-08	4.4855e-08	13.9941	15.0889	15.2684	15.3606	15.7454	15.6634
27.5	1.03461e+19	3.46785e+25	1.53444	532.289	0.0002	0.0832887	12090	10699.5	1.58673	1.17327	4.16245e+38	5.31798e+38	3.47887e-08	4.44463e-08	13.9995	15.0938	15.2728	15.3645	15.749	15.6667
27.75	1.02521e+19	3.44576e+25	1.53444	528.898	0.0002	0.0831747	12062.5	10675.1	1.58673	1.17059	4.12161e+38	5.26965e+38	3.44473e-08	4.40424e-08	14.0048	15.0987	15.2772	15.3685	15.7525	15.67
28	1.01592e+19	3.42387e+25	1.53444	525.538	0.0002	0.0830612	12035	10650.9	1.58673	1.16793	4.08125e+38	5.22189e+38	3.41101e-08	4.36432e-08	14.0101	15.1035	15.2816	15.3725	15.7561	15.6733
28.25	1.00674e+19	3.40218e+25	1.53444	522.208	0.0002	0.0829481	12007.7	10626.7	1.58673	1.16528	4.04139e+38	5.17469e+38	3.37769e-08	4.32487e-08	14.0154	15.1084	15.286	15.3764	15.7596	15.6766
28.5	9.9766e+18	3.38068e+25	1.53444	518.909	0.0002	0.0828355	11980.6	10602.7	1.58673	1.16265	4.00202e+38	5.12804e+38	3.34478e-08	4.28589e-08	14.0207	15.1132	15.2904	15.3804	15.7631	15.6798
28.75	9.88691e+18	3.35938e+25	1.53444	515.639	0.0002	0.0827234	11953.6	10578.8	1.58673	1.16002	3.96312e+38	5.08194e+38	3.31227e-08	4.24735e-08	14.026	15.118	15.2948	15.3843	15.7667	15.6831
29	9.79826e+18	3.33826e+25	1.53444	512.398	0.0002	0.0826117	11926.7	10555	1.58673	1.15742	3.92469e+38	5.03637e+38	3.28016e-08	4.20927e-08	14.0313	15.1229	15.2991	15.3882	15.7702	15.6864
29.25	9.71064e+18	3.31734e+25	1.53444	509.186	0.0002	0.0825005	11899.9	10531.3	1.58673	1.15482	3.88673e+38	4.99134e+38	3.24843e-08	4.17163e-08	14.0365	15.1277	15.3035	15.3921	15.7737	15.6896
29.5	9.62404e+18	3.2966e+25	1.53444	506.003	0.0002	0.0823897	11873.3	10507.8	1.58673	1.15224	3.84922e+38	4.94682e+38	3.21708e-08	4.13443e-08	14.0418	15.1325	15.3078	15.3961	15.7772	15.6929
29.75	9.53844e+18	3.27605e+25	1.53444	502.848	0.0002	0.0822794	11846.8	10484.3	1.58673	1.14967	3.81216e+38	4.90282e+38	3.18611e-08	4.09765e-08	14.047	15.1373	15.3122	15.4	15.7807	15.6961
30	9.45382e+18	3.25568e+25	1.53444	499.722	0.0002	0.0821695	11820.5	10461	1.58673	1.14711	3.77555e+38	4.85933e+38	3.15551e-08	4.0613e-08	14.0523	15.1421	15.3165	15.4039	15.7842	15.6994
30.25	9.37017e+18	3.23549e+25	1.53444	496.623	0.0002	0.08206	11794.2	10437.8	1.58673	1.14456	3.73938e+38	4.81633e+38	3.12528e-08	4.02537e-08	14.0575	15.1468	15.3208	15.4078	15.7877	15.7026
30.5	9.28749e+18	3.21547e+25	1.53444	493.551	0.0002	0.081951	11768.1	10414.7	1.58673	1.14203	3.70363e+38	4.77383e+38	3.0954e-08	3.98985e-08	14.0627	15.1516	15.3251	15.4117	15.7912	15.7058
30.75	9.20575e+18	3.19564e+25	1.53444	490.506	0.0002	0.0818424	11742.1	10391.7	1.58673	1.13951	3.66831e+38	4.73182e+38	3.06588e-08	3.95473e-08	14.068	15.1564	15.3295	15.4155	15.7946	15.709
31	9.12494e+18	3.17597e+25	1.53444	487.488	0.0002	0.0817342	11716.3	10368.8	1.58673	1.137	3.63341e+38	4.69028e+38	3.03671e-08	3.92001e-08	14.0732	15.1611	15.3338	15.4194	15.7981	15.7122
31.25	9.04505e+18	3.15648e+25	1.53444	484.497	0.0002	0.0816265	11690.6	10346	1.58673	1.1345	3.59893e+38	4.64921e+38	3.00789e-08	3.88569e-08	14.0784	15.1659	15.3381	15.4233	15.8016	15.7154
31.5	8.96606e+18	3.13716e+25	1.53444	481.531	0.0002	0.0815191	11665	10323.4	1.58673	1.13202	3.56485e+38	4.60862e+38	2.97941e-08	3.85176e-08	14.0836	15.1706	15.3424	15.4271	15.805	15.7186
31.75	8.88797e+18	3.11801e+25	1.53444	478.591	0.0002	0.0814122	11639.5	10300.8	1.58673	1.12954	3.53117e+38	4.56848e+38	2.95126e-08	3.81822e-08	14.0887	15.1754	15.3466	15.431	15.8085	15.7218
32	8.81076e+18	3.09903e+25	1.53444	475.677	0.0002	0.0813058	11614.1	10278.4	1.58673	1.12708	3.49789e+38	4.52879e+38	2.92344e-08	3.78505e-08	14.0939	15.1801	15.3509	15.4348	15.8119	15.725
32.25	8.73442e+18	3.08021e+25	1.53444	472.789	0.0002	0.0811997	11588.9	10256	1.58673	1.12463	3.46499e+38	4.48955e+38	2.89595e-08	3.75225e-08	14.0991	15.1848	15.3552	15.4387	15.8153	15.7282
32.5	8.65893e+18	3.06155e+25	1.53444	469.925	0.0002	0.081094	11563.7	10233.8	1.58673	1.12219	3.43249e+38	4.45075e+38	2.86879e-08	3.71982e-08	14.1042	15.1895	15.3594	15.4425	15.8188	15.7314
32.75	8.58429e+18	3.04305e+25	1.53444	467.085	0.0002	0.0809888	11538.7	10211.7	1.58673	1.11977	3.40036e+38	4.41238e+38	2.84193e-08	3.68776e-08	14.1094	15.1942	15.3637	15.4463	15.8222	15.7345
33	8.51049e+18	3.02471e+25	1.53444	464.271	0.0002	0.080884	11513.9	10189.6	1.58673	1.11735	3.3686e+38	4.37445e+38	2.81539e-08	3.65605e-08	14.1145	15.1989	15.368	15.4502	15.8256	15.7377
33.25	8.4375e+18	3.00653e+25	1.53444	461.48	0.0002	0.0807795	11489.1	10167.7	1.58673	1.11495	3.33722e+38	4.33693e+38	2.78916e-08	3.6247e-08	14.1197	15.2036	15.3722	15.454	15.829	15.7408
33.5	8.36533e+18	2.98851e+25	1.53444	458.713	0.0002	0.0806755	11464.5	10145.9	1.58673	1.11256	3.3062e+38	4.29984e+38	2.76324e-08	3.59369e-08	14.1248	15.2083	15.3764	15.4578	15.8324	15.744
33.75	8.29396e+18	2.97064e+25	1.53444	455.97	0.0002	0.0805719	11439.9	10124.2	1.58673	1.11018	3.27553e+38	4.26315e+38	2.73761e-08	3.56303e-08	14.1299	15.213	15.3807	15.4616	15.8358	15.7471
34	8.22337e+18	2.95292e+25	1.53444	453.25	0.0002	0.0804687	11415.5	10102.6	1.58673	1.10781	3.24523e+38	4.22687e+38	2.71228e-08	3.53271e-08	14.135	15.2176	15.3849	15.4654	15.8392	15.7503
34.25	8.15356e+18	2.93535e+25	1.53444	450.554	0.0002	0.0803658	11391.2	10081.1	1.58673	1.10545	3.21526e+38	4.19099e+38	2.68723e-08	3.50272e-08	14.1401	15.2223	15.3891	15.4692	15.8426	15.7534
34.5	8.08453e+18	2.91793e+25	1.53444	447.88	0.0002	0.0802634	11367	10059.7	1.58673	1.1031	3.18565e+38	4.1555e+38	2.66248e-08	3.47306e-08	14.1452	15.2269	15.3933	15.4729	15.846	15.7565
34.75	8.01624e+18	2.90065e+25	1.53444	445.228	0.0002	0.0801613	11342.9	10038.4	1.58673	1.10077	3.15637e+38	4.1204e+38	2.63801e-08	3.44373e-08	14.1503	15.2316	15.3975	15.4767	15.8493	15.7596
35	7.94871e+18	2.88353e+25	1.53444	442.599	0.0002	0.0800597	11319	10017.2	1.58673	1.09844	3.12742e+38	4.08569e+38	2.61382e-08	3.41471e-08	14.1554	15.2362	15.4017	15.4805	15.8527	15.7627
35.25	7.88191e+18	2.83489e+25	1.51902	444.89	0.0002	0.0799173	11368.9	10046.7	1.56296	1.09612	3.09881e+38	4.05136e+38	2.58991e-08	3.38602e-08	14.1658	15.2477	15.4142	15.4939	15.8671	15.7777
35.5	7.81584e+18	2.81805e+25	1.51902	442.024	0.0002	0.0798067	11344.1	10025.5	1.56423	1.09382	3.07052e+38	4.0174e+38	2.56626e-08	3.35764e-08	14.1708	15.2523	15.4184	15.4977	15.8704	15.7808
35.75	7.75049e+18	2.80135e+25	1.51902	439.304	0.0002	0.0797012	11319.9	10004.5	1.56489	1.09153	3.04256e+38	3.9838e+38	2.54289e-08	3.32956e-08	14.1759	15.2569	15.4225	15.5015	15.8738	15.7839
36	7.68584e+18	2.754e+25	1.50376	441.497	0.0002	0.0795565	11369.8	10034.1	1.54195	1.08924	3.0149e+38	3.95057e+38	2.51978e-08	3.30179e-08	14.1862	15.2683	15.435	15.5149	15.8882	15.7989
36.25	7.62189e+18	2.73758e+25	1.50376	438.584	0.0002	0.0794437	11344.9	10013.2	1.54365	1.08697	2.98756e+38	3.9177e+38	2.49693e-08	3.27432e-08	14.1913	15.2729	15.4392	15.5187	15.8915	15.802
36.5	7.55863e+18	2.69119e+25	1.48864	440.68	0.0002	0.0792957	11394.8	10042.9	1.52154	1.08471	2.96053e+38	3.88519e+38	2.47434e-08	3.24714e-08	14.2017	15.2844	15.4516	15.5321	15.9059	15.8169
36.75	7.49604e+18	2.67504e+25	1.48864	437.697	0.0002	0.0791804	11369.6	10022.1	1.52366	1.08246	2.9338e+38	3.85301e+38	2.45199e-08	3.22025e-08	14.2067	15.289	15.4558	15.5359	15.9092	15.82
37	7.4341e+18	2.65902e+25	1.48864	434.888	0.0002	0.0790712	11345	10001.3	1.52503	1.08021	2.90736e+38	3.82118e+38	2.42989e-08	3.19364e-08	14.2117	15.2936	15.46	15.5396	15.9126	15.8231
37.25	7.37281e+18	2.61388e+25	1.47369	436.958	0.0002	0.0789237	11395.1	10031.2	1.50332	1.07798	2.88121e+38	3.78967e+38	2.40804e-08	3.16731e-08	14.2221	15.305	15.4724	15.553	15.9269	15.838
37.5	7.31215e+18	2.59812e+25	1.47369	433.979	0.0002	0.078808	11369.9	10010.5	1.50559	1.07576	2.85534e+38	3.75849e+38	2.38642e-08	3.14125e-08	14.2271	15.3096	15.4766	15.5568	15.9303	15.8411
37.75	7.2521e+18	2.55389e+25	1.45888	435.967	0.0002	0.078658	11420	10040.4	1.48458	1.07354	2.82974e+38	3.72763e+38	2.36502e-08	3.11546e-08	14.2375	15.321	15.4891	15.5702	15.9447	15.8561
38	7.19264e+18	2.5384e+25	1.45888	432.933	0.0002	0.0785403	11394.5	10019.8	1.48717	1.07133	2.80441e+38	3.69706e+38	2.34386e-08	3.08991e-08	14.2425	15.3256	15.4932	15.574	15.948	15.8592
38.25	7.13376e+18	2.49506e+25	1.44422	434.867	0.0002	0.0783888	11444.7	10049.8	1.46669	1.06913	2.77934e+38	3.6668e+38	2.3229e-08	3.06462e-08	14.2529	15.3371	15.5057	15.5874	15.9624	15.8741
38.5	7.07543e+18	2.47982e+25	1.44422	431.793	0.0002	0.0782698	11419	10029.2	1.46951	1.06694	2.75451e+38	3.63682e+38	2.30215e-08	3.03956e-08	14.258	15.3417	15.5099	15.5912	15.9657	15.8772
38.75	7.01764e+18	2.4647e+25	1.44422	428.908	0.0002	0.0781574	11394	10008.7	1.47154	1.06476	2.72993e+38	3.60711e+38	2.28161e-08	3.01473e-08	14.263	15.3463	15.5141	15.595	15.9691	15.8803
39	6.96037e+18	2.42255e+25	1.4297	430.843	0.0002	0.0780075	11444.4	10038.8	1.45122	1.06258	2.70559e+38	3.57768e+38	2.26126e-08	2.99013e-08	14.2734	15.3577	15.5265	15.6084	15.9835	15.8953
39.25	6.9036e+18	2.40768e+25	1.4297	427.8	0.0002	0.0778891	11418.7	10018.2	1.45403	1.0604	2.68146e+38	3.5485e+38	2.2411e-08	2.96574e-08	14.2784	15.3623	15.5307	15.6122	15.9868	15.8984
39.5	6.84732e+18	2.36639e+25	1.41534	429.663	0.0002	0.077737	11469.1	10048.4	1.43429	1.05824	2.65756e+38	3.51957e+38	2.22112e-08	2.94156e-08	14.2888	15.3738	15.5432	15.6256	16.0012	15.9133
39.75	6.7915e+18	2.35176e+25	1.41534	426.577	0.0002	0.077617	11443.2	10027.8	1.43732	1.05607	2.63386e+38	3.49088e+38	2.20131e-08	2.91759e-08	14.2939	15.3784	15.5474	15.6294	16.0046	15.9165
40	6.73614e+18	2.33725e+25	1.41534	423.678	0.0002	0.0775036	11418	10007.3	1.43956	1.05391	2.61037e+38	3.46242e+38	2.18168e-08	2.8938e-08	14.2989	15.383	15.5516	15.6332	16.008	15.9196
40.25	6.6812e+18	2.29709e+25	1.40111	425.543	0.0002	0.0773531	11468.5	10037.4	1.41992	1.05176	2.58707e+38	3.43418e+38	2.16221e-08	2.8702e-08	14.3094	15.3945	15.5641	15.6466	16.0223	15.9345
40.5	6.62669e+18	2.28282e+25	1.40111	422.489	0.0002	0.0772338	11442.6	10016.9	1.4229	1.04961	2.56397e+38	3.40617e+38	2.1429e-08	2.84679e-08	14.3144	15.3991	15.5683	15.6504	16.0257	15.9377
40.75	6.57259e+18	2.24349e+25	1.38704	424.282	0.0002	0.0770812	11493	10047	1.40378	1.04746	2.54105e+38	3.37836e+38	2.12375e-08	2.82354e-08	14.3249	15.4106	15.5808	15.6639	16.0401	15.9526
41	6.51889e+18	2.22945e+25	1.38704	421.188	0.0002	0.0769604	11466.8	10026.4	1.40694	1.04531	2.51831e+38	3.35075e+38	2.10474e-08	2.80047e-08	14.33	15.4153	15.585	15.6677	16.0435	15.9558
41.25	6.46556e+18	2.21552e+25	1.38704	418.281	0.0002	0.0768462	11441.3	10005.8	1.40931	1.04317	2.49575e+38	3.32334e+38	2.08588e-08	2.77756e-08	14.335	15.4199	15.5892	15.6715	16.0469	15.9589
41.5	6.41262e+18	2.17728e+25	1.3731	420.079	0.0002	0.0766953	11491.9	10035.8	1.39023	1.04102	2.47335e+38	3.29613e+38	2.06716e-08	2.75482e-08	14.3455	15.4314	15.6017	15.685	16.0613	15.9739
41.75	6.36003e+18	2.16358e+25	1.3731	417.021	0.0002	0.0765753	11465.6	10015.2	1.3933	1.03888	2.45112e+38	3.2691e+38	2.04858e-08	2.73223e-08	14.3506	15.4361	15.606	15.6888	16.0647	15.9771
42	6.30781e+18	2.12613e+25	1.3593	418.749	0.0002	0.0764224	11516.2	10045.2	1.37471	1.03674	2.42905e+38	3.24226e+38	2.03014e-08	2.70979e-08	14.3611	15.4476	15.6185	15.7023	16.0792	15.9921
42.25	6.25593e+18	2.11266e+25	1.3593	415.652	0.0002	0.0763009	11489.6	10024.5	1.37794	1.03461	2.40715e+38	3.21559e+38	2.01183e-08	2.68751e-08	14.3662	15.4523	15.6228	15.7062	16.0826	15.9952
42.5	6.20439e+18	2.09929e+25	1.3593	412.744	0.0002	0.0761862	11463.7	10003.7	1.38036	1.03247	2.3854e+38	3.1891e+38	1.99365e-08	2.66537e-08	14.3714	15.457	15.6271	15.71	16.086	15.9984
42.75	6.15319e+18	2.0629e+25	1.34564	414.479	0.0002	0.0760349	11514.3	10033.6	1.36177	1.03033	2.3638e+38	3.16278e+38	1.9756e-08	2.64337e-08	14.3818	15.4686	15.6396	15.7235	16.1005	16.0134
43	6.10232e+18	2.04975e+25	1.34564	411.421	0.0002	0.0759144	11487.7	10012.8	1.36488	1.0282	2.34235e+38	3.13663e+38	1.95768e-08	2.62152e-08	14.387	15.4733	15.6439	15.7274	16.1039	16.0166
43.25	6.05177e+18	2.01411e+25	1.33212	413.087	0.0002	0.0757612	11538.2	10042.6	1.34675	1.02606	2.32105e+38	3.11065e+38	1.93988e-08	2.5998e-08	14.3975	15.4848	15.6565	15.7409	16.1183	16.0316
43.5	6.00154e+18	2.00118e+25	1.33212	409.993	0.0002	0.0756393	11511.3	10021.7	1.35	1.02392	2.2999e+38	3.08483e+38	1.9222e-08	2.57822e-08	14.4027	15.4896	15.6608	15.7448	16.1218	16.0348
43.75	5.95162e+18	1.98836e+25	1.33212	407.086	0.0002	0.075524	11485	10000.8	1.35244	1.02179	2.27889e+38	3.05917e+38	1.90464e-08	2.55678e-08	14.4079	15.4943	15.6651	15.7487	16.1253	16.038
44	5.90202e+18	1.95373e+25	1.31873	408.76	0.0002	0.0753727	11535.7	10030.4	1.33429	1.01965	2.25802e+38	3.03368e+38	1.8872e-08	2.53547e-08	14.4185	15.5059	15.6777	15.7622	16.1397	16.0531
44.25	5.85272e+18	1.94112e+25	1.31873	405.707	0.0002	0.0752516	11508.7	10009.4	1.3374	1.01752	2.23729e+38	3.00834e+38	1.86987e-08	2.51429e-08	14.4237	15.5107	15.682	15.7661	16.1432	16.0563
44.5	5.80372e+18	1.90721e+25	1.30548	407.314	0.0002	0.0750984	11559.2	10038.9	1.31968	1.01538	2.21671e+38	2.98315e+38	1.85267e-08	2.49324e-08	14.4343	15.5223	15.6946	15.7797	16.1577	16.0713
44.75	5.75502e+18	1.89482e+25	1.30548	404.225	0.0002	0.074976	11531.8	10017.8	1.32292	1.01324	2.19626e+38	2.95812e+38	1.83557e-08	2.47232e-08	14.4395	15.5271	15.699	15.7836	16.1612	16.0746
45	5.70662e+18	1.86162e+25	1.29236	405.789	0.0002	0.0748219	11582.3	10047.3	1.30552	1.01111	2.17594e+38	2.93324e+38	1.8186e-08	2.45153e-08	14.4501	15.5387	15.7116	15.7972	16.1757	16.0896
45.25	5.65852e+18	1.84944e+25	1.29236	402.678	0.0002	0.0746986	11554.6	10026	1.30882	1.00897	2.15576e+38	2.90852e+38	1.80173e-08	2.43086e-08	14.4554	15.5436	15.716	15.8012	16.1792	16.0929
45.5	5.6107e+18	1.83735e+25	1.29236	399.758	0.0002	0.0745822	11527.8	10004.8	1.31133	1.00683	2.13572e+38	2.88394e+38	1.78498e-08	2.41032e-08	14.4606	15.5484	15.7204	15.8051	16.1828	16.0962
45.75	5.56318e+18	1.80511e+25	1.27937	401.339	0.0002	0.0744302	11578.4	10034.1	1.29384	1.00469	2.1158e+38	2.85951e+38	1.76834e-08	2.38991e-08	14.4713	15.5601	15.733	15.8187	16.1973	16.1112
46	5.51594e+18	1.79323e+25	1.27937	398.278	0.0002	0.0743082	11550.7	10012.7	1.29697	1.00255	2.09603e+38	2.83523e+38	1.7518e-08	2.36961e-08	14.4766	15.5649	15.7375	15.8227	16.2008	16.1145
46.25	5.46898e+18	1.76167e+25	1.26652	399.795	0.0002	0.0741544	11601.2	10041.9	1.27988	1.00041	2.07638e+38	2.81109e+38	1.73538e-08	2.34944e-08	14.4873	15.5766	15.7501	15.8363	16.2153	16.1296
46.5	5.4223e+18	1.74999e+25	1.26652	396.702	0.0002	0.0740311	11573.1	10020.4	1.28312	0.99827	2.05686e+38	2.7871e+38	1.71907e-08	2.32939e-08	14.4926	15.5815	15.7546	15.8403	16.2189	16.1329
46.75	5.37591e+18	1.71911e+25	1.25379	398.178	0.0002	0.0738766	11623.6	10049.5	1.26632	0.996128	2.03746e+38	2.76325e+38	1.70286e-08	2.30946e-08	14.5033	15.5932	15.7673	15.854	16.2335	16.148
47	5.32979e+18	1.70763e+25	1.25379	395.066	0.0002	0.0737525	11595.3	10027.9	1.26961	0.993985	2.0182e+38	2.73955e+38	1.68676e-08	2.28964e-08	14.5086	15.5981	15.7717	15.858	16.2371	16.1513
47.25	5.28394e+18	1.69625e+25	1.25379	392.144	0.0002	0.0736352	11567.7	10006.3	1.2721	0.99184	1.99906e+38	2.71598e+38	1.67076e-08	2.26995e-08	14.514	15.603	15.7762	15.862	16.2407	16.1547
47.5	5.23837e+18	1.66626e+25	1.24119	393.639	0.0002	0.073483	11618.3	10035.2	1.2552	0.989695	1.98005e+38	2.69256e+38	1.65487e-08	2.25037e-08	14.5247	15.6148	15.7889	15.8757	16.2552	16.1698
47.75	5.19306e+18	1.65508e+25	1.24119	390.579	0.0002	0.0733602	11589.9	10013.4	1.25829	0.987548	1.96116e+38	2.66927e+38	1.63908e-08	2.23091e-08	14.5301	15.6197	15.7934	15.8797	16.2588	16.1731
48	5.14803e+18	1.62574e+25	1.22872	392.012	0.0002	0.0732062	11640.4	10042.2	1.24177	0.9854	1.94239e+38	2.64612e+38	1.6234e-08	2.21156e-08	14.5409	15.6315	15.8062	15.8934	16.2734	16.1882
48.25	5.10326e+18	1.61474e+25	1.22872	388.923	0.0002	0.0730822	11611.6	10020.3	1.24496	0.98325	1.92375e+38	2.62311e+38	1.60782e-08	2.19233e-08	14.5463	15.6364	15.8107	15.8975	16.2771	16.1916
48.5	5.05876e+18	1.58604e+25	1.21637	390.316	0.0002	0.0729275	11662	10049	1.22871	0.9811	1.90523e+38	2.60024e+38	1.59234e-08	2.17321e-08	14.5571	15.6482	15.8235	15.9112	16.2916	16.2067
48.75	5.01452e+18	1.57524e+25	1.21637	387.209	0.0002	0.0728027	11633	10027	1.23194	0.978948	1.88683e+38	2.5775e+38	1.57696e-08	2.15421e-08	14.5626	15.6532	15.828	15.9153	16.2953	16.2101
49	4.97055e+18	1.56453e+25	1.21637	384.292	0.0002	0.0726849	11604.8	10004.9	1.2344	0.976794	1.86855e+38	2.55489e+38	1.56169e-08	2.13531e-08	14.568	15.6582	15.8325	15.9194	16.299	16.2136
49.25	4.92683e+18	1.53667e+25	1.20415	385.705	0.0002	0.0725324	11655.3	10033.4	1.21803	0.97464	1.85039e+38	2.53243e+38	1.54651e-08	2.11654e-08	14.5789	15.6701	15.8453	15.9331	16.3136	16.2287
49.5	4.88338e+18	1.52615e+25	1.20415	382.653	0.0002	0.0724091	11626.3	10011.2	1.22106	0.972484	1.83235e+38	2.51009e+38	1.53143e-08	2.09787e-08	14.5843	15.6751	15.8499	15.9372	16.3173	16.2321
49.75	4.84019e+18	1.4989e+25	1.19205	384.004	0.0002	0.072255	11676.6	10039.5	1.20505	0.970326	1.81444e+38	2.48789e+38	1.51646e-08	2.07931e-08	14.5952	15.687	15.8628	15.951	16.3319	16.2473
50	4.79725e+18	1.48857e+25	1.19205	380.925	0.0002	0.0721304	11647.2	10017.2	1.20818	0.968167	1.79664e+38	2.46582e+38	1.50158e-08	2.06087e-08	14.6007	15.692	15.8673	15.9551	16.3356	16.2507
50.25	4.75458e+18	1.46191e+25	1.18007	382.238	0.0002	0.0719756	11697.5	10045.4	1.19242	0.966007	1.77895e+38	2.44389e+38	1.4868e-08	2.04254e-08	14.6116	15.7039	15.8802	15.9689	16.3503	16.2659
50.5	4.71216e+18	1.45176e+25	1.18007	379.143	0.0002	0.0718503	11667.8	10023	1.19559	0.963845	1.76139e+38	2.42208e+38	1.47213e-08	2.02431e-08	14.6172	15.709	15.8848	15.9731	16.354	16.2694
50.75	4.67e+18	1.4417e+25	1.18007	376.236	0.0002	0.0717319	11638.9	10000.5	1.19799	0.961682	1.74395e+38	2.40041e+38	1.45755e-08	2.0062e-08	14.6227	15.7141	15.8895	15.9773	16.3577	16.2729
51	4.6281e+18	1.41584e+25	1.16821	377.569	0.0002	0.0715795	11689.3	10028.5	1.18211	0.959517	1.72662e+38	2.37887e+38	1.44307e-08	1.9882e-08	14.6337	15.726	15.9023	15.9911	16.3724	16.288
51.25	4.58645e+18	1.40596e+25	1.16821	374.529	0.0002	0.0714556	11659.6	10005.8	1.18508	0.957351	1.70941e+38	2.35746e+38	1.42868e-08	1.97031e-08	14.6393	15.7311	15.907	15.9953	16.3762	16.2915
51.5	4.54505e+18	1.38067e+25	1.15647	375.802	0.0002	0.0713015	11709.8	10033.7	1.16955	0.955184	1.69232e+38	2.33619e+38	1.4144e-08	1.95253e-08	14.6502	15.7431	15.9199	16.0091	16.3908	16.3067
51.75	4.50391e+18	1.37097e+25	1.15647	372.737	0.0002	0.0711765	11679.7	10010.9	1.1726	0.953015	1.67534e+38	2.31504e+38	1.40021e-08	1.93485e-08	14.6558	15.7482	15.9246	16.0133	16.3946	16.3103
52	4.46303e+18	1.34624e+25	1.14485	373.971	0.0002	0.0710217	11729.9	10038.7	1.15732	0.950845	1.65848e+38	2.29403e+38	1.38612e-08	1.91729e-08	14.6668	15.7602	15.9375	16.0272	16.4093	16.3255
52.25	4.4224e+18	1.33672e+25	1.14485	370.892	0.0002	0.070896	11699.5	10015.8	1.16041	0.948673	1.64174e+38	2.27314e+38	1.37212e-08	1.89983e-08	14.6725	15.7654	15.9422	16.0314	16.4131	16.329
52.5	4.38202e+18	1.31254e+25	1.13335	372.094	0.0002	0.0707407	11749.6	10043.4	1.14533	0.9465	1.62511e+38	2.25239e+38	1.35823e-08	1.88249e-08	14.6835	15.7774	15.9552	16.0453	16.4279	16.3443
52.75	4.34189e+18	1.30319e+25	1.13335	369.005	0.0002	0.0706145	11718.9	10020.4	1.14844	0.944326	1.6086e+38	2.23176e+38	1.34443e-08	1.86525e-08	14.6892	15.7826	15.9599	16.0495	16.4317	16.3478
53	4.30202e+18	1.27955e+25	1.12196	370.177	0.0002	0.0704589	11769	10047.9	1.13357	0.94215	1.5922e+38	2.21127e+38	1.33072e-08	1.84812e-08	14.7003	15.7946	15.9729	16.0634	16.4464	16.3631
53.25	4.26239e+18	1.27037e+25	1.12196	367.081	0.0002	0.0703322	11738	10024.7	1.13669	0.939973	1.57592e+38	2.1909e+38	1.31711e-08	1.8311e-08	14.706	15.7999	15.9777	16.0677	16.4503	16.3667
53.5	4.22302e+18	1.26127e+25	1.12196	364.172	0.0002	0.0702124	11708	10001.4	1.13906	0.937795	1.55975e+38	2.17066e+38	1.3036e-08	1.81418e-08	14.7117	15.8051	15.9824	16.072	16.4541	16.3703
53.75	4.18389e+18	1.23836e+25	1.11068	365.37	0.0002	0.0700594	11758.2	10028.7	1.12403	0.935615	1.5437e+38	2.15055e+38	1.29018e-08	1.79737e-08	14.7228	15.8172	15.9954	16.086	16.4689	16.3855
54	4.14501e+18	1.22943e+25	1.11068	362.336	0.0002	0.0699343	11727.2	10005.3	1.12693	0.933434	1.52776e+38	2.13056e+38	1.27686e-08	1.78067e-08	14.7286	15.8225	16.0002	16.0903	16.4728	16.3891
54.25	4.10637e+18	1.20703e+25	1.09952	363.477	0.0002	0.0697797	11777.3	10032.5	1.11223	0.931251	1.51192e+38	2.1107e+38	1.26363e-08	1.76407e-08	14.7397	15.8346	16.0133	16.1042	16.4876	16.4044
54.5	4.06798e+18	1.19827e+25	1.09952	360.421	0.0002	0.0696536	11745.9	10008.9	1.1152	0.929067	1.49621e+38	2.09097e+38	1.25049e-08	1.74758e-08	14.7455	15.8399	16.0181	16.1086	16.4915	16.4081
54.75	4.02983e+18	1.17638e+25	1.08847	361.526	0.0002	0.0694985	11795.9	10035.9	1.10071	0.926881	1.4806e+38	2.07136e+38	1.23745e-08	1.73119e-08	14.7567	15.852	16.0312	16.1225	16.5063	16.4234
55	3.99192e+18	1.16778e+25	1.08847	358.459	0.0002	0.0693717	11764.3	10012.2	1.10371	0.924693	1.4651e+38	2.05188e+38	1.22449e-08	1.71491e-08	14.7625	15.8573	16.036	16.1269	16.5102	16.427
55.25	3.95426e+18	1.14639e+25	1.07754	359.534	0.0002	0.0692162	11814.2	10039.1	1.08942	0.922504	1.44971e+38	2.03252e+38	1.21163e-08	1.69872e-08	14.7737	15.8695	16.0491	16.1409	16.525	16.4424
55.5	3.91684e+18	1.13796e+25	1.07754	356.46	0.0002	0.069089	11782.2	10015.3	1.09242	0.920314	1.43444e+38	2.01328e+38	1.19887e-08	1.68265e-08	14.7795	15.8749	16.054	16.1453	16.529	16.4461
55.75	3.87966e+18	1.11705e+25	1.06671	357.507	0.0002	0.0689332	11832.1	10042	1.07831	0.918122	1.41927e+38	1.99417e+38	1.18619e-08	1.66668e-08	14.7908	15.8871	16.0671	16.1593	16.5438	16.4614
56	3.84272e+18	1.10878e+25	1.06671	354.428	0.0002	0.0688056	11799.9	10018	1.08132	0.915929	1.40422e+38	1.97518e+38	1.17361e-08	1.65081e-08	14.7967	15.8925	16.072	16.1638	16.5478	16.4651
56.25	3.80601e+18	1.08836e+25	1.05599	355.447	0.0002	0.0686495	11849.7	10044.6	1.06738	0.913734	1.38927e+38	1.95632e+38	1.16112e-08	1.63504e-08	14.8079	15.9047	16.0852	16.1778	16.5627	16.4805
56.5	3.76955e+18	1.08024e+25	1.05599	352.365	0.0002	0.0685216	11817.2	10020.5	1.07039	0.911538	1.37443e+38	1.93758e+38	1.14871e-08	1.61938e-08	14.8139	15.9101	16.0901	16.1823	16.5667	16.4842
56.75	3.73333e+18	1.06029e+25	1.04538	353.359	0.0002	0.0683653	11867	10046.9	1.05661	0.90934	1.3597e+38	1.91896e+38	1.1364e-08	1.60381e-08	14.8252	15.9224	16.1033	16.1963	16.5815	16.4996
57	3.69734e+18	1.05232e+25	1.04538	350.274	0.0002	0.068237	11834.2	10022.6	1.05961	0.90714	1.34508e+38	1.90046e+38	1.12418e-08	1.58835e-08	14.8311	15.9278	16.1083	16.2008	16.5856	16.5033
57.25	3.66158e+18	1.03283e+25	1.03487	351.242	0.0002	0.0680806	11884	10048.9	1.04599	0.904939	1.33056e+38	1.88208e+38	1.11205e-08	1.57299e-08	14.8425	15.9401	16.1215	16.2149	16.6005	16.5188
57.5	3.62606e+18	1.02502e+25	1.03487	348.156	0.0002	0.067952	11850.9	10024.4	1.04898	0.902736	1.31615e+38	1.86382e+38	1.1e-08	1.55773e-08	14.8485	15.9456	16.1265	16.2194	16.6045	16.5225
57.75	3.59077e+18	1.00599e+25	1.02447	349.099	0.0002	0.0677955	11900.7	10050.6	1.03551	0.900532	1.30184e+38	1.84568e+38	1.08805e-08	1.54257e-08	14.8599	15.958	16.1398	16.2335	16.6195	16.538
58	3.5557e+18	9.98332e+24	1.02447	346.013	0.0002	0.0676666	11867.3	10026	1.03849	0.898325	1.28764e+38	1.82765e+38	1.07618e-08	1.52751e-08	14.8659	15.9635	16.1448	16.2381	16.6235	16.5417
58.25	3.52087e+18	9.90748e+24	1.02447	343.113	0.0002	0.0675447	11835	10001.3	1.04076	0.896117	1.27354e+38	1.80975e+38	1.06439e-08	1.51254e-08	14.8719	15.969	16.1498	16.2426	16.6276	16.5455
58.5	3.48626e+18	9.72324e+24	1.01418	344.086	0.0002	0.067391	11884.8	10027.2	1.02711	0.893906	1.25955e+38	1.79196e+38	1.0527e-08	1.49767e-08	14.8834	15.9814	16.1631	16.2568	16.6426	16.561
58.75	3.45187e+18	9.64888e+24	1.01418	341.07	0.0002	0.0672639	11851.5	10002.3	1.02985	0.891694	1.24566e+38	1.77428e+38	1.04109e-08	1.4829e-08	14.8894	15.987	16.1682	16.2613	16.6467	16.5648
59	3.41771e+18	9.46895e+24	1.00399	341.989	0.0002	0.0671088	11901.1	10028	1.01648	0.88948	1.23187e+38	1.75673e+38	1.02956e-08	1.46823e-08	14.9009	15.9994	16.1815	16.2755	16.6617	16.5803
59.25	3.38378e+18	9.39607e+24	1.00399	338.957	0.0002	0.0669809	11867.5	10003	1.01927	0.887264	1.21818e+38	1.73928e+38	1.01812e-08	1.45365e-08	14.907	16.005	16.1866	16.2801	16.6658	16.5841
59.5	3.35007e+18	9.22038e+24	0.993899	339.844	0.0002	0.0668253	11917	10028.5	1.00608	0.885046	1.20459e+38	1.72196e+38	1.00677e-08	1.43917e-08	14.9185	16.0174	16.1999	16.2943	16.6808	16.5996
59.75	3.31659e+18	9.14894e+24	0.993899	336.806	0.0002	0.0666968	11883	10003.4	1.00888	0.882826	1.19111e+38	1.70475e+38	9.95501e-09	1.42479e-08	14.9247	16.023	16.205	16.2989	16.6849	16.6035
60	3.28334e+18	8.97741e+24	0.983912	337.665	0.0002	0.066541	11932.4	10028.7	0.99586	0.880605	1.17773e+38	1.68766e+38	9.8432e-09	1.4105e-08	14.9362	16.0355	16.2184	16.3131	16.6999	16.619
60.25	3.25032e+18	8.9074e+24	0.983912	334.625	0.0002	0.0664121	11898.1	10003.4	0.998664	0.878382	1.16446e+38	1.67069e+38	9.73226e-09	1.39632e-08	14.9424	16.0411	16.2235	16.3178	16.7041	16.6229
60.5	3.21753e+18	8.73994e+24	0.974025	335.458	0.0002	0.0662561	11947.5	10028.6	0.985794	0.876159	1.15129e+38	1.65383e+38	9.62218e-09	1.38223e-08	14.954	16.0536	16.2369	16.332	16.7192	16.6384
60.75	3.18496e+18	8.67134e+24	0.974025	332.418	0.0002	0.0661269	11912.9	10003.1	0.988592	0.873933	1.13822e+38	1.63709e+38	9.51298e-09	1.36824e-08	14.9602	16.0593	16.2421	16.3367	16.7234	16.6423
61	3.15263e+18	8.50789e+24	0.964237	333.226	0.0002	0.0659707	11962.3	10028.2	0.975869	0.871707	1.12526e+38	1.62047e+38	9.40462e-09	1.35435e-08	14.9718	16.0719	16.2555	16.351	16.7384	16.6579
61.25	3.12052e+18	8.44067e+24	0.964237	330.187	0.0002	0.0658413	11927.4	10002.5	0.978659	0.869479	1.1124e+38	1.60397e+38	9.29714e-09	1.34056e-08	14.978	16.0776	16.2607	16.3557	16.7427	16.6618
61.5	3.08864e+18	8.28114e+24	0.954547	330.972	0.0002	0.065685	11976.7	10027.4	0.966079	0.86725	1.09964e+38	1.58758e+38	9.1905e-09	1.32686e-08	14.9897	16.0902	16.2742	16.37	16.7578	16.6774
61.75	3.05699e+18	8.2153e+24	0.954547	327.934	0.0002	0.0655553	11941.5	10001.6	0.968856	0.865019	1.08698e+38	1.57131e+38	9.08473e-09	1.31326e-08	14.996	16.0959	16.2794	16.3747	16.762	16.6814
62	3.02556e+18	8.05961e+24	0.944955	328.695	0.0002	0.0653989	11990.7	10026.3	0.956415	0.862787	1.07443e+38	1.55516e+38	8.9798e-09	1.29976e-08	15.0077	16.1085	16.2929	16.389	16.7771	16.6969
62.25	2.99436e+18	7.99511e+24	0.944955	325.66	0.0002	0.0652691	11955.3	10000.4	0.959178	0.860554	1.06198e+38	1.53912e+38	8.87572e-09	1.28636e-08	15.014	16.1143	16.2982	16.3938	16.7814	16.7009
62.5	2.96338e+18	7.8432e+24	0.93546	326.399	0.0002	0.0651126	12004.4	10024.9	0.946871	0.85832	1.04962e+38	1.5232e+38	8.77246e-09	1.27305e-08	15.0257	16.1269	16.3117	16.4081	16.7965	16.7165
62.75	2.93263e+18	7.69356e+24	0.926059	326.965	0.0002	0.0649491	12052.7	10049.4	0.935401	0.856084	1.03737e+38	1.50739e+38	8.67005e-09	1.25984e-08	15.0375	16.1396	16.3252	16.4225	16.8117	16.7322
63	2.90209e+18	7.63106e+24	0.926059	323.846	0.0002	0.0648158	12016.2	10023.1	0.938423	0.853847	1.02521e+38	1.49169e+38	8.56846e-09	1.24672e-08	15.0439	16.1455	16.3306	16.4274	16.816	16.7362
63.25	2.87177e+18	7.48509e+24	0.916754	324.505	0.0002	0.0646572	12065.1	10047.5	0.926597	0.851608	1.01316e+38	1.47611e+38	8.46771e-09	1.23369e-08	15.0557	16.1582	16.3442	16.4418	16.8312	16.7519
63.5	2.84167e+18	7.42389e+24	0.916754	321.422	0.0002	0.0645251	12028.5	10021	0.929471	0.849368	1.0012e+38	1.46064e+38	8.36776e-09	1.22076e-08	15.0621	16.1641	16.3495	16.4466	16.8356	16.7559
63.75	2.81179e+18	7.28151e+24	0.907541	322.073	0.0002	0.0643671	12077.5	10045.2	0.917703	0.847125	9.89337e+37	1.44528e+38	8.26863e-09	1.20793e-08	15.074	16.1768	16.3631	16.461	16.8508	16.7716
64	2.78211e+18	7.22159e+24	0.907541	319.006	0.0002	0.0642352	12040.7	10018.6	0.920516	0.844882	9.77571e+37	1.43002e+38	8.17028e-09	1.19518e-08	15.0804	16.1828	16.3685	16.4659	16.8552	16.7757
64.25	2.75265e+18	7.08273e+24	0.898422	319.642	0.0002	0.0640775	12089.6	10042.5	0.908837	0.842636	9.65899e+37	1.41488e+38	8.07274e-09	1.18252e-08	15.0923	16.1955	16.3822	16.4804	16.8704	16.7914
64.5	2.72339e+18	7.02407e+24	0.898422	316.585	0.0002	0.0639457	12052.6	10015.7	0.911604	0.840388	9.5432e+37	1.39984e+38	7.97596e-09	1.16995e-08	15.0988	16.2015	16.3876	16.4853	16.8748	16.7955
64.75	2.69434e+18	6.88865e+24	0.889394	317.203	0.0002	0.063788	12101.5	10039.5	0.900021	0.838138	9.42835e+37	1.38491e+38	7.87997e-09	1.15747e-08	15.1108	16.2143	16.4013	16.4998	16.8901	16.8113
65	2.6655e+18	6.83124e+24	0.889394	314.156	0.0002	0.0636563	12064.1	10012.5	0.902748	0.835885	9.3144e+37	1.37008e+38	7.78474e-09	1.14508e-08	15.1173	16.2203	16.4068	16.5047	16.8945	16.8154
65.25	2.63685e+18	6.6992e+24	0.880456	314.755	0.0002	0.0634987	12112.9	10036	0.891264	0.833631	9.20138e+37	1.35536e+38	7.69028e-09	1.13277e-08	15.1293	16.2332	16.4205	16.5193	16.9098	16.8311
65.5	2.60841e+18	6.64301e+24	0.880456	311.717	0.0002	0.0633669	12075.3	10008.9	0.893952	0.831374	9.08927e+37	1.34074e+38	7.59658e-09	1.12056e-08	15.1359	16.2392	16.426	16.5242	16.9143	16.8353
65.75	2.58018e+18	6.51427e+24	0.871609	312.296	0.0002	0.0632095	12124	10032.2	0.882567	0.829114	8.97808e+37	1.32623e+38	7.50365e-09	1.10843e-08	15.1479	16.2521	16.4397	16.5388	16.9296	16.8511
66	2.55214e+18	6.45929e+24	0.871609	309.267	0.0002	0.0630776	12086.2	10004.9	0.885219	0.826853	8.86778e+37	1.31182e+38	7.41146e-09	1.09638e-08	15.1545	16.2582	16.4453	16.5438	16.9341	16.8553
66.25	2.52431e+18	6.33378e+24	0.86285	309.827	0.0002	0.0629202	12134.8	10028	0.873935	0.82459	8.75841e+37	1.29751e+38	7.32006e-09	1.08443e-08	15.1666	16.2711	16.459	16.5584	16.9494	16.8711
66.5	2.49668e+18	6.28e+24	0.86285	306.807	0.0002	0.0627883	12096.6	10000.4	0.876553	0.822324	8.64995e+37	1.28331e+38	7.2294e-09	1.07256e-08	15.1732	16.2773	16.4646	16.5634	16.954	16.8753
66.75	2.46926e+18	6.15766e+24	0.85418	307.348	0.0002	0.062631	12145.2	10023.3	0.86537	0.820057	8.54241e+37	1.26922e+38	7.13952e-09	1.06078e-08	15.1853	16.2902	16.4784	16.578	16.9693	16.8911
67	2.44204e+18	6.03721e+24	0.845596	307.722	0.0002	0.0624668	12192.7	10046.2	0.854961	0.817787	8.43576e+37	1.25523e+38	7.05039e-09	1.04909e-08	15.1975	16.3032	16.4923	16.5927	16.9847	16.9069
67.25	2.41503e+18	5.98519e+24	0.845596	304.628	0.0002	0.0623317	12153.4	10018.3	0.857797	0.815516	8.33005e+37	1.24134e+38	6.96204e-09	1.03748e-08	15.2042	16.3094	16.4979	16.5978	16.9893	16.9112
67.5	2.38822e+18	5.86782e+24	0.837099	305.095	0.0002	0.0621725	12201.7	10041	0.847034	0.813244	8.22522e+37	1.22756e+38	6.87443e-09	1.02596e-08	15.2164	16.3225	16.5118	16.6124	17.0047	16.9271
67.75	2.36161e+18	5.81695e+24	0.837099	302.042	0.0002	0.0620386	12162.3	10012.9	0.849719	0.810969	8.12133e+37	1.21389e+38	6.7876e-09	1.01453e-08	15.2232	16.3287	16.5174	16.6176	17.0093	16.9314
68	2.33521e+18	5.70258e+24	0.828687	302.503	0.0002	0.0618801	12210.6	10035.3	0.838995	0.808693	8.01833e+37	1.20031e+38	6.70151e-09	1.00319e-08	15.2354	16.3418	16.5314	16.6323	17.0247	16.9473
68.25	2.30901e+18	5.65285e+24	0.828687	299.469	0.0002	0.0617466	12171	10007.1	0.841612	0.806415	7.91623e+37	1.18685e+38	6.61618e-09	9.91936e-09	15.2423	16.348	16.5371	16.6374	17.0294	16.9516
68.5	2.28301e+18	5.54143e+24	0.82036	299.917	0.0002	0.0615884	12219.3	10029.3	0.830958	0.804135	7.81501e+37	1.17348e+38	6.53159e-09	9.80766e-09	15.2545	16.3612	16.551	16.6521	17.0448	16.9675
68.75	2.2572e+18	5.49281e+24	0.82036	296.899	0.0002	0.0614551	12179.5	10000.8	0.833523	0.801853	7.71468e+37	1.16022e+38	6.44773e-09	9.69681e-09	15.2614	16.3674	16.5567	16.6573	17.0495	16.9719
69	2.2316e+18	5.38426e+24	0.812116	297.332	0.0002	0.0612971	12227.6	10022.8	0.822948	0.799569	7.61523e+37	1.14706e+38	6.36462e-09	9.58681e-09	15.2737	16.3806	16.5707	16.6721	17.065	16.9878
69.25	2.20619e+18	5.27742e+24	0.803955	297.602	0.0002	0.0611324	12274.6	10044.8	0.81311	0.797284	7.51665e+37	1.134e+38	6.28222e-09	9.47765e-09	15.2861	16.3938	16.5847	16.6869	17.0805	17.0038
69.5	2.18098e+18	5.23045e+24	0.803955	294.519	0.0002	0.0609961	12233.7	10015.9	0.815867	0.794996	7.41895e+37	1.12104e+38	6.20057e-09	9.36934e-09	15.293	16.4002	16.5905	16.6921	17.0853	17.0082
69.75	2.15596e+18	5.1264e+24	0.795876	294.881	0.0002	0.0608364	12281.5	10037.7	0.805673	0.792707	7.32211e+37	1.10818e+38	6.11963e-09	9.26188e-09	15.3054	16.4134	16.6046	16.707	17.1008	17.0242
70	2.13114e+18	5.0805e+24	0.795876	291.842	0.0002	0.0607014	12240.6	10008.6	0.808274	0.790415	7.22615e+37	1.09542e+38	6.03943e-09	9.15525e-09	15.3124	16.4198	16.6104	16.7123	17.1056	17.0286
70.25	2.10652e+18	4.97919e+24	0.787879	292.201	0.0002	0.0605425	12288.4	10030.1	0.798106	0.788122	7.13104e+37	1.08276e+38	5.95994e-09	9.04946e-09	15.3249	16.4331	16.6245	16.7271	17.1211	17.0446
70.5	2.08208e+18	4.93434e+24	0.787879	289.184	0.0002	0.060408	12247.2	10000.9	0.800632	0.785827	7.03679e+37	1.0702e+38	5.88117e-09	8.9445e-09	15.3319	16.4396	16.6304	16.7324	17.1259	17.0491
70.75	2.05784e+18	4.83569e+24	0.779962	289.533	0.0002	0.0602495	12295	10022.2	0.790521	0.783529	6.94339e+37	1.05774e+38	5.80311e-09	8.84036e-09	15.3444	16.4529	16.6445	16.7473	17.1415	17.0651
71	2.03379e+18	4.73862e+24	0.772124	289.721	0.0002	0.0600843	12341.6	10043.3	0.781118	0.78123	6.85085e+37	1.04538e+38	5.72576e-09	8.73705e-09	15.3569	16.4663	16.6587	16.7622	17.1571	17.0812
71.25	2.00994e+18	4.69533e+24	0.772124	286.646	0.0002	0.059947	12299.3	10013.8	0.783814	0.778929	6.75914e+37	1.03312e+38	5.64912e-09	8.63456e-09	15.364	16.4728	16.6646	16.7676	17.162	17.0857
71.5	1.98627e+18	4.60085e+24	0.764365	286.929	0.0002	0.0597869	12346.8	10034.7	0.774053	0.776626	6.66828e+37	1.02096e+38	5.57318e-09	8.53288e-09	15.3766	16.4862	16.6788	16.7825	17.1776	17.1018
71.75	1.96279e+18	4.55857e+24	0.764365	283.9	0.0002	0.0596511	12304.5	10004.9	0.776588	0.77432	6.57826e+37	1.00889e+38	5.49794e-09	8.43202e-09	15.3837	16.4927	16.6848	16.788	17.1825	17.1063
72	1.9395e+18	4.46661e+24	0.756684	284.181	0.0002	0.0594919	12351.9	10025.6	0.766842	0.772013	6.48906e+37	9.96917e+37	5.42339e-09	8.33197e-09	15.3964	16.5062	16.699	16.8029	17.1982	17.1224
72.25	1.9164e+18	4.37614e+24	0.74908	284.306	0.0002	0.059326	12398.2	10046.2	0.757781	0.769704	6.4007e+37	9.85042e+37	5.34954e-09	8.23273e-09	15.4091	16.5197	16.7133	16.818	17.2139	17.1386
72.5	1.89348e+18	4.33535e+24	0.74908	281.228	0.0002	0.0591878	12354.8	10016.1	0.76045	0.767393	6.31315e+37	9.73264e+37	5.27637e-09	8.13429e-09	15.4163	16.5263	16.7194	16.8234	17.2188	17.1432
72.75	1.87076e+18	4.24733e+24	0.741553	281.449	0.0002	0.0590272	12401.9	10036.4	0.751022	0.765079	6.22643e+37	9.61581e+37	5.20389e-09	8.03665e-09	15.429	16.5398	16.7337	16.8385	17.2346	17.1593
73	1.84821e+18	4.20752e+24	0.741553	278.422	0.0002	0.0588906	12358.5	10006	0.753524	0.762764	6.14051e+37	9.49993e+37	5.13208e-09	7.9398e-09	15.4363	16.5465	16.7397	16.844	17.2396	17.164
73.25	1.82585e+18	4.12188e+24	0.734101	278.643	0.0002	0.0587309	12405.6	10026.1	0.7441	0.760446	6.05541e+37	9.38499e+37	5.06096e-09	7.84374e-09	15.4491	16.5601	16.7541	16.8591	17.2553	17.1802
73.5	1.80367e+18	4.03764e+24	0.726724	278.71	0.0002	0.0585647	12451.6	10046.2	0.73534	0.758126	5.9711e+37	9.27099e+37	4.99049e-09	7.74846e-09	15.4619	16.5737	16.7685	16.8742	17.2711	17.1964
73.75	1.78167e+18	3.99926e+24	0.726724	275.638	0.0002	0.0584258	12407.1	10015.4	0.737962	0.755804	5.8876e+37	9.15793e+37	4.92071e-09	7.65396e-09	15.4692	16.5804	16.7746	16.8798	17.2761	17.2011
74	1.75986e+18	3.91733e+24	0.719422	275.802	0.0002	0.0582648	12453.9	10035.1	0.728834	0.75348	5.80489e+37	9.04579e+37	4.85158e-09	7.56024e-09	15.4821	16.5941	16.7891	16.8949	17.292	17.2173
74.25	1.73822e+18	3.87989e+24	0.719422	272.782	0.0002	0.0581275	12409.4	10004.1	0.731286	0.751153	5.72297e+37	8.93458e+37	4.78311e-09	7.46729e-09	15.4895	16.6009	16.7953	16.9005	17.297	17.2221
74.5	1.71677e+18	3.80022e+24	0.712192	272.947	0.0002	0.0579675	12456.2	10023.6	0.722155	0.748824	5.64184e+37	8.82429e+37	4.7153e-09	7.37511e-09	15.5024	16.6146	16.8097	16.9157	17.3129	17.2383
74.75	1.69549e+18	3.72185e+24	0.705036	272.96	0.0002	0.0578011	12501.7	10043	0.713671	0.746493	5.56148e+37	8.71491e+37	4.64815e-09	7.2837e-09	15.5154	16.6284	16.8242	16.9309	17.3288	17.2546
75	1.67439e+18	3.68579e+24	0.705036	269.899	0.0002	0.0576616	12456.2	10011.6	0.716234	0.74416	5.48192e+37	8.60646e+37	4.58165e-09	7.19306e-09	15.5229	16.6352	16.8305	16.9366	17.3339	17.2594
75.25	1.65346e+18	3.60961e+24	0.697951	270.009	0.0002	0.0575004	12502.6	10030.7	0.707385	0.741824	5.40312e+37	8.49891e+37	4.51579e-09	7.10317e-09	15.5359	16.649	16.845	16.9519	17.3498	17.2757
75.5	1.63272e+18	3.5347e+24	0.690937	269.972	0.0002	0.0573331	12547.8	10049.7	0.699151	0.739486	5.3251e+37	8.39228e+37	4.45058e-09	7.01405e-09	15.549	16.6629	16.8596	16.9672	17.3658	17.2921
75.75	1.61215e+18	3.49997e+24	0.690937	266.898	0.0002	0.0571926	12501.4	10017.9	0.701728	0.737146	5.24785e+37	8.28655e+37	4.38602e-09	6.92569e-09	15.5565	16.6698	16.866	16.9729	17.371	17.2969
76	1.59175e+18	3.42717e+24	0.683994	266.963	0.0002	0.0570307	12547.5	10036.6	0.693109	0.734803	5.17136e+37	8.18172e+37	4.32209e-09	6.83807e-09	15.5696	16.6837	16.8806	16.9882	17.3869	17.3133
76.25	1.57153e+18	3.39332e+24	0.683994	263.947	0.0002	0.0568921	12501.1	10004.6	0.695502	0.732459	5.09564e+37	8.07779e+37	4.2588e-09	6.75121e-09	15.5772	16.6907	16.887	16.994	17.3922	17.3182
76.5	1.55149e+18	3.32257e+24	0.677121	264.018	0.0002	0.0567314	12547.3	10023	0.686862	0.730111	5.02066e+37	7.97474e+37	4.19614e-09	6.66508e-09	15.5904	16.7046	16.9016	17.0094	17.4082	17.3346
76.75	1.53161e+18	3.253e+24	0.670317	263.94	0.0002	0.0565643	12592.2	10041.4	0.678839	0.727762	4.94643e+37	7.87258e+37	4.1341e-09	6.5797e-09	15.6036	16.7186	16.9163	17.0248	17.4242	17.351
77	1.51191e+18	3.22044e+24	0.670317	260.891	0.0002	0.0564237	12544.7	10008.9	0.681321	0.72541	4.87296e+37	7.7713e+37	4.07269e-09	6.49505e-09	15.6113	16.7256	16.9228	17.0306	17.4295	17.356
77.25	1.49237e+18	3.15286e+24	0.663581	260.91	0.0002	0.056262	12590.5	10026.9	0.672933	0.723055	4.80022e+37	7.6709e+37	4.0119e-09	6.41114e-09	15.6246	16.7397	16.9375	17.046	17.4455	17.3724
77.5	1.47301e+18	3.08643e+24	0.656913	260.787	0.0002	0.0560942	12635.1	10044.8	0.665132	0.720699	4.72823e+37	7.57138e+37	3.95174e-09	6.32796e-09	15.6379	16.7537	16.9523	17.0615	17.4616	17.3889
77.75	1.45382e+18	3.05511e+24	0.656913	257.731	0.0002	0.0559527	12586.7	10012	0.667615	0.71834	4.65698e+37	7.47274e+37	3.89219e-09	6.24552e-09	15.6457	16.7609	16.9588	17.0674	17.467	17.3939
78	1.4348e+18	2.9906e+24	0.650311	257.709	0.0002	0.0557904	12632.2	10029.6	0.659434	0.715978	4.58647e+37	7.37496e+37	3.83325e-09	6.16381e-09	15.6591	16.775	16.9736	17.0829	17.4831	17.4104
78.25	1.41595e+18	2.92718e+24	0.643777	257.547	0.0002	0.0556222	12676.4	10047.1	0.651826	0.713615	4.51668e+37	7.27806e+37	3.77493e-09	6.08282e-09	15.6725	16.7891	16.9885	17.0985	17.4993	17.427
78.5	1.39726e+18	2.89708e+24	0.643777	254.489	0.0002	0.05548	12627.2	10013.8	0.654292	0.711249	4.44763e+37	7.18202e+37	3.71721e-09	6.00255e-09	15.6804	16.7964	16.9951	17.1045	17.5047	17.4321
78.75	1.37875e+18	2.83552e+24	0.637307	254.431	0.0002	0.0553174	12672.4	10030.9	0.6463	0.708881	4.37929e+37	7.08684e+37	3.6601e-09	5.923e-09	15.6938	16.8106	17.01	17.12	17.5209	17.4486
79	1.36039e+18	2.77501e+24	0.630903	254.232	0.0002	0.0551488	12716.4	10048	0.638868	0.70651	4.31168e+37	6.99251e+37	3.60359e-09	5.84416e-09	15.7073	16.8248	17.025	17.1357	17.5371	17.4653
79.25	1.34221e+18	2.7461e+24	0.630903	251.177	0.0002	0.0550061	12666.3	10014.3	0.64131	0.704137	4.24477e+37	6.89903e+37	3.54767e-09	5.76603e-09	15.7153	16.8321	17.0317	17.1417	17.5426	17.4704
79.5	1.32418e+18	2.68737e+24	0.624563	251.083	0.0002	0.0548432	12711.2	10031	0.633492	0.701761	4.17857e+37	6.80639e+37	3.49234e-09	5.68861e-09	15.7289	16.8464	17.0467	17.1574	17.5589	17.487
79.75	1.30632e+18	2.62966e+24	0.618287	250.851	0.0002	0.0546744	12754.8	10047.6	0.626225	0.699383	4.11307e+37	6.71458e+37	3.4376e-09	5.61188e-09	15.7425	16.8608	17.0617	17.1731	17.5752	17.5037
80	1.28862e+18	2.6019e+24	0.618287	247.801	0.0002	0.0545312	12703.9	10013.4	0.628634	0.697001	4.04827e+37	6.62361e+37	3.38344e-09	5.53585e-09	15.7506	16.8682	17.0685	17.1792	17.5808	17.5089
80.25	1.27109e+18	2.54591e+24	0.612074	247.673	0.0002	0.0543681	12748.6	10029.7	0.620981	0.694618	3.98417e+37	6.53347e+37	3.32987e-09	5.4605e-09	15.7643	16.8826	17.0835	17.1949	17.5971	17.5256
80.5	1.25371e+18	2.49089e+24	0.605924	247.409	0.0002	0.054199	12791.9	10045.8	0.613869	0.692232	3.92075e+37	6.44415e+37	3.27686e-09	5.38585e-09	15.778	16.897	17.0987	17.2107	17.6134	17.5423
80.75	1.23649e+18	2.46426e+24	0.605924	244.365	0.0002	0.0540555	12740.1	10011.2	0.61624	0.689843	3.85802e+37	6.35565e+37	3.22444e-09	5.31189e-09	15.7861	16.9045	17.1055	17.2169	17.6191	17.5476
81	1.21943e+18	2.41089e+24	0.599835	244.206	0.0002	0.0538922	12784.4	10027	0.608744	0.687451	3.79598e+37	6.26797e+37	3.17258e-09	5.23861e-09	15.7999	16.919	17.1207	17.2327	17.6355	17.5644
81.25	1.20253e+18	2.35847e+24	0.593807	243.911	0.0002	0.053723	12827.4	10042.6	0.601779	0.685057	3.73461e+37	6.18111e+37	3.1213e-09	5.16601e-09	15.8138	16.9335	17.1359	17.2486	17.6519	17.5812
81.5	1.18579e+18	2.33293e+24	0.593807	240.876	0.0002	0.053579	12774.8	10007.5	0.604111	0.68266	3.67393e+37	6.09506e+37	3.07058e-09	5.09409e-09	15.822	16.9411	17.1428	17.2549	17.6576	17.5865
81.75	1.16921e+18	2.28209e+24	0.58784	240.686	0.0002	0.0534156	12818.8	10022.8	0.596765	0.680261	3.61392e+37	6.00982e+37	3.02042e-09	5.02285e-09	15.8359	16.9557	17.158	17.2707	17.6741	17.6033
82	1.15279e+18	2.23216e+24	0.581933	240.362	0.0002	0.0532463	12861.4	10038	0.589942	0.677859	3.55458e+37	5.92539e+37	2.97083e-09	4.95229e-09	15.8498	16.9703	17.1733	17.2866	17.6906	17.6202
82.25	1.13652e+18	2.20768e+24	0.581933	237.338	0.0002	0.053102	12808	10002.4	0.592233	0.675455	3.49591e+37	5.84178e+37	2.92179e-09	4.88241e-09	15.8582	16.978	17.1804	17.293	17.6963	17.6256
82.5	1.12041e+18	2.15927e+24	0.576085	237.118	0.0002	0.0529385	12851.7	10017.2	0.585032	0.673048	3.43791e+37	5.75896e+37	2.87332e-09	4.81319e-09	15.8722	16.9927	17.1957	17.309	17.7129	17.6424
82.75	1.10445e+18	2.11174e+24	0.570296	236.766	0.0002	0.0527691	12893.9	10031.9	0.578345	0.670639	3.38057e+37	5.67696e+37	2.8254e-09	4.74466e-09	15.8862	17.0074	17.2111	17.325	17.7294	17.6594
83	1.08865e+18	2.06506e+24	0.564566	236.354	0.0002	0.0525975	12935.6	10046.4	0.571902	0.668228	3.3239e+37	5.59575e+37	2.77803e-09	4.67679e-09	15.9003	17.0222	17.2265	17.341	17.746	17.6763
83.25	1.07301e+18	2.04194e+24	0.564566	233.305	0.0002	0.0524513	12880.5	10010.1	0.574241	0.665815	3.26789e+37	5.51535e+37	2.73121e-09	4.60959e-09	15.9088	17.03	17.2336	17.3475	17.7519	17.6818
83.5	1.05752e+18	1.99672e+24	0.558892	233.022	0.0002	0.0522866	12923.6	10024.3	0.567343	0.663399	3.21253e+37	5.43574e+37	2.68495e-09	4.54305e-09	15.923	17.0448	17.2491	17.3636	17.7685	17.6988
83.75	1.04219e+18	1.95231e+24	0.553276	232.611	0.0002	0.0521162	12965.2	10038.3	0.560933	0.660981	3.15783e+37	5.35692e+37	2.63923e-09	4.47718e-09	15.9372	17.0597	17.2646	17.3797	17.7852	17.7158
84	1.02701e+18	1.93019e+24	0.553276	229.589	0.0002	0.0519704	12909.4	10001.6	0.563182	0.65856	3.10377e+37	5.27888e+37	2.59405e-09	4.41195e-09	15.9458	17.0676	17.2718	17.3862	17.7912	17.7214
84.25	1.01197e+18	1.88718e+24	0.547716	229.287	0.0002	0.051806	12952.2	10015.2	0.556386	0.656137	3.05034e+37	5.20162e+37	2.5494e-09	4.34738e-09	15.9601	17.0825	17.2874	17.4024	17.8079	17.7384
84.5	9.97093e+17	1.84495e+24	0.542212	228.856	0.0002	0.0516359	12993.5	10028.7	0.550076	0.653711	2.99755e+37	5.12512e+37	2.50527e-09	4.28345e-09	15.9744	17.0975	17.303	17.4186	17.8246	17.7555
84.75	9.8236e+17	1.8035e+24	0.536764	228.369	0.0002	0.0514636	13034.2	10042	0.543994	0.651283	2.94539e+37	5.0494e+37	2.46168e-09	4.22016e-09	15.9888	17.1125	17.3186	17.4348	17.8414	17.7726
85	9.67777e+17	1.78266e+24	0.536764	225.334	0.0002	0.0513163	12976.8	10004.5	0.54626	0.648853	2.89385e+37	4.97444e+37	2.41861e-09	4.15751e-09	15.9975	17.1206	17.326	17.4415	17.8474	17.7783
85.25	9.53342e+17	1.74253e+24	0.53137	224.976	0.0002	0.051151	13019	10017.5	0.539726	0.646419	2.84295e+37	4.90024e+37	2.37606e-09	4.0955e-09	16.0119	17.1356	17.3417	17.4578	17.8642	17.7954
85.5	9.39055e+17	1.70315e+24	0.52603	224.493	0.0002	0.0509801	13059.6	10030.3	0.533656	0.643984	2.79265e+37	4.8268e+37	2.33403e-09	4.03412e-09	16.0264	17.1508	17.3574	17.4741	17.8811	17.8126
85.75	9.24913e+17	1.6645e+24	0.520744	223.956	0.0002	0.0508072	13099.6	10042.9	0.5278	0.641545	2.74298e+37	4.75412e+37	2.29251e-09	3.97337e-09	16.041	17.1659	17.3732	17.4904	17.898	17.8298
86	9.10918e+17	1.64487e+24	0.520744	220.923	0.0002	0.0506589	13040.7	10004.7	0.530039	0.639105	2.69392e+37	4.68218e+37	2.25151e-09	3.91324e-09	16.0499	17.1741	17.3807	17.4973	17.9042	17.8356
86.25	8.97066e+17	1.60748e+24	0.515512	220.518	0.0002	0.0504931	13082.3	10016.9	0.523727	0.636661	2.64546e+37	4.61098e+37	2.21101e-09	3.85374e-09	16.0645	17.1893	17.3965	17.5136	17.9211	17.8529
86.5	8.83358e+17	1.57078e+24	0.510331	219.99	0.0002	0.0503217	13122.2	10028.9	0.517866	0.634215	2.5976e+37	4.54052e+37	2.171e-09	3.79485e-09	16.0791	17.2046	17.4124	17.5301	17.938	17.8702
86.75	8.69792e+17	1.53478e+24	0.505203	219.41	0.0002	0.0501484	13161.6	10040.7	0.512208	0.631766	2.55033e+37	4.47079e+37	2.1315e-09	3.73657e-09	16.0939	17.22	17.4283	17.5466	17.955	17.8875
87	8.56368e+17	1.51633e+24	0.505203	216.385	0.0002	0.0499994	13101.2	10001.8	0.514404	0.629314	2.50366e+37	4.40179e+37	2.0925e-09	3.6789e-09	16.1029	17.2283	17.4359	17.5535	17.9613	17.8934
87.25	8.43085e+17	1.48151e+24	0.500126	215.938	0.0002	0.0498332	13142.1	10013.2	0.508293	0.626859	2.45758e+37	4.33351e+37	2.05398e-09	3.62184e-09	16.1177	17.2437	17.4519	17.57	17.9784	17.9107
87.5	8.29941e+17	1.44736e+24	0.495101	215.369	0.0002	0.0496616	13181.4	10024.4	0.502619	0.624402	2.41208e+37	4.26595e+37	2.01596e-09	3.56538e-09	16.1325	17.2591	17.4679	17.5866	17.9954	17.9281
87.75	8.16938e+17	1.41385e+24	0.490126	214.75	0.0002	0.0494879	13220.1	10035.5	0.497141	0.621941	2.36717e+37	4.19912e+37	1.97842e-09	3.50951e-09	16.1474	17.2746	17.484	17.6032	18.0126	17.9456
88	8.04074e+17	1.38099e+24	0.4852	214.094	0.0002	0.049313	13258.3	10046.4	0.49181	0.619478	2.32283e+37	4.13299e+37	1.94136e-09	3.45425e-09	16.1624	17.2902	17.5002	17.6199	18.0297	17.963
88.25	7.91347e+17	1.36394e+24	0.4852	211.06	0.0002	0.0491624	13195.7	10006.4	0.493998	0.617012	2.27906e+37	4.06758e+37	1.90478e-09	3.39958e-09	16.1717	17.2987	17.508	17.627	18.0362	17.9691
88.5	7.78758e+17	1.33219e+24	0.480325	210.546	0.0002	0.0489951	13235.7	10016.8	0.488187	0.614544	2.23586e+37	4.00287e+37	1.86868e-09	3.34549e-09	16.1867	17.3143	17.5241	17.6437	18.0534	17.9866
88.75	7.66303e+17	1.30105e+24	0.475498	209.915	0.0002	0.0488226	13274	10027	0.482791	0.612072	2.19322e+37	3.93885e+37	1.83304e-09	3.29199e-09	16.2018	17.33	17.5403	17.6604	18.0706	18.0041
89	7.53984e+17	1.27051e+24	0.47072	209.236	0.0002	0.0486481	13311.6	10037	0.477576	0.609597	2.15114e+37	3.87553e+37	1.79787e-09	3.23907e-09	16.2169	17.3457	17.5566	17.6772	18.0879	18.0217
89.25	7.41798e+17	1.24057e+24	0.46599	208.523	0.0002	0.0484725	13348.8	10046.8	0.472496	0.607119	2.10961e+37	3.81289e+37	1.76316e-09	3.18672e-09	16.2321	17.3615	17.573	17.6941	18.1052	18.0393
89.5	7.29746e+17	1.22485e+24	0.46599	205.495	0.0002	0.0483208	13284.1	10005.8	0.474635	0.604637	2.06863e+37	3.75094e+37	1.72891e-09	3.13494e-09	16.2416	17.3702	17.5809	17.7014	18.1118	18.0455
89.75	7.17825e+17	1.19594e+24	0.461307	204.925	0.0002	0.0481529	13323.1	10015.1	0.469076	0.602153	2.0282e+37	3.68967e+37	1.69512e-09	3.08373e-09	16.2569	17.3861	17.5973	17.7182	18.1292	18.0631
90	7.06035e+17	1.16759e+24	0.456671	204.241	0.0002	0.0479797	13360.4	10024.2	0.463914	0.599665	1.9883e+37	3.62907e+37	1.66177e-09	3.03308e-09	16.2722	17.4019	17.6137	17.7352	18.1466	18.0808
90.25	6.94376e+17	1.13981e+24	0.452082	203.511	0.0002	0.0478048	13397	10033.1	0.458925	0.597174	1.94895e+37	3.56914e+37	1.62888e-09	2.983e-09	16.2876	17.4179	17.6302	17.7521	18.164	18.0985
90.5	6.82848e+17	1.11258e+24	0.44754	202.748	0.0002	0.0476287	13433.1	10041.8	0.454061	0.59468	1.91012e+37	3.50988e+37	1.59643e-09	2.93347e-09	16.3031	17.4339	17.6468	17.7692	18.1815	18.1163
90.75	6.71449e+17	1.08589e+24	0.443042	201.958	0.0002	0.0474517	13468.9	10050.2	0.449304	0.592182	1.87183e+37	3.4513e+37	1.56443e-09	2.8845e-09	16.3186	17.45	17.6634	17.7862	18.199	18.1341
91	6.6018e+17	1.07167e+24	0.443042	198.93	0.0002	0.0472983	13401.2	10007.8	0.4514	0.589682	1.83407e+37	3.39337e+37	1.53287e-09	2.83609e-09	16.3284	17.459	17.6716	17.7938	18.2058	18.1405
91.25	6.49037e+17	1.04593e+24	0.43859	198.288	0.0002	0.0471294	13438.9	10015.7	0.446156	0.587178	1.79683e+37	3.33609e+37	1.50174e-09	2.78822e-09	16.3439	17.4751	17.6882	17.8109	18.2234	18.1584
91.5	6.3802e+17	1.0207e+24	0.434183	197.536	0.0002	0.0469554	13474.9	10023.5	0.441288	0.58467	1.7601e+37	3.27947e+37	1.47105e-09	2.74089e-09	16.3596	17.4913	17.7049	17.828	18.241	18.1762
91.75	6.2713e+17	9.95981e+23	0.42982	196.741	0.0002	0.0467796	13510.1	10030.9	0.436577	0.582159	1.72389e+37	3.22349e+37	1.44078e-09	2.69411e-09	16.3753	17.5075	17.7216	17.8452	18.2586	18.1942
92	6.16365e+17	9.71767e+23	0.425501	195.915	0.0002	0.0466028	13544.8	10038.2	0.431981	0.579644	1.68819e+37	3.16816e+37	1.41095e-09	2.64786e-09	16.3911	17.5238	17.7384	17.8625	18.2763	18.2121
92.25	6.05726e+17	9.48046e+23	0.421225	195.064	0.0002	0.0464252	13579.1	10045.2	0.427482	0.577127	1.653e+37	3.11347e+37	1.38153e-09	2.60216e-09	16.4069	17.5402	17.7553	17.8798	18.2941	18.2301
92.5	5.95212e+17	9.35225e+23	0.421225	192.053	0.0002	0.0462707	13508.6	10001.3	0.4295	0.574606	1.61831e+37	3.05943e+37	1.35255e-09	2.55699e-09	16.417	17.5494	17.7638	17.8876	18.3011	18.2367
92.75	5.84821e+17	9.12366e+23	0.416992	191.351	0.0002	0.0461012	13545	10007.8	0.424523	0.572081	1.58413e+37	3.00602e+37	1.32397e-09	2.51235e-09	16.4329	17.5658	17.7807	17.9049	18.3189	18.2548
93	5.74553e+17	8.89977e+23	0.412802	190.542	0.0002	0.0459266	13579.5	10014	0.419903	0.569554	1.55044e+37	2.95324e+37	1.29582e-09	2.46824e-09	16.4488	17.5823	17.7976	17.9223	18.3367	18.2729
93.25	5.64408e+17	8.6805e+23	0.408654	189.692	0.0002	0.0457504	13613.3	10020	0.415433	0.567023	1.51725e+37	2.9011e+37	1.26808e-09	2.42466e-09	16.4649	17.5988	17.8146	17.9398	18.3546	18.291
93.5	5.54387e+17	8.4658e+23	0.404547	188.813	0.0002	0.0455732	13646.5	10025.7	0.41107	0.564489	1.48456e+37	2.84959e+37	1.24076e-09	2.38161e-09	16.481	17.6154	17.8317	17.9573	18.3725	18.3091
93.75	5.4449e+17	8.25557e+23	0.400482	187.91	0.0002	0.0453952	13679.3	10031.2	0.406799	0.561952	1.45236e+37	2.79871e+37	1.21384e-09	2.33909e-09	16.4971	17.6321	17.8488	17.9748	18.3904	18.3273
94	5.34714e+17	8.04976e+23	0.396458	186.986	0.0002	0.0452167	13711.7	10036.4	0.402608	0.559413	1.42065e+37	2.74847e+37	1.18734e-09	2.2971e-09	16.5134	17.6488	17.866	17.9924	18.4084	18.3456
94.25	5.2506e+17	7.84829e+23	0.392474	186.043	0.0002	0.0450376	13743.7	10041.4	0.398491	0.556871	1.38942e+37	2.69884e+37	1.16124e-09	2.25562e-09	16.5297	17.6656	17.8832	18.0101	18.4265	18.3639
94.5	5.15524e+17	7.65109e+23	0.38853	185.083	0.0002	0.044858	13775.3	10046	0.394442	0.554325	1.35867e+37	2.64983e+37	1.13554e-09	2.21466e-09	16.5461	17.6824	17.9005	18.0278	18.4446	18.3822
94.75	5.06106e+17	7.45809e+23	0.384626	184.106	0.0002	0.044678	13806.5	10050.5	0.390457	0.551776	1.32838e+37	2.60142e+37	1.11023e-09	2.1742e-09	16.5625	17.6994	17.9179	18.0456	18.4628	18.4006
95	4.96801e+17	7.35107e+23	0.384626	181.098	0.0002	0.0445206	13730.3	10004	0.392405	0.549222	1.29856e+37	2.55359e+37	1.0853e-09	2.13423e-09	16.5731	17.7091	17.9268	18.0537	18.4702	18.4076
95.25	4.8761e+17	7.16543e+23	0.380761	180.278	0.0002	0.0443492	13763.9	10007.8	0.38793	0.546664	1.26919e+37	2.50635e+37	1.06075e-09	2.09474e-09	16.5896	17.7261	17.9442	18.0715	18.4884	18.426
95.5	4.78531e+17	6.98376e+23	0.376934	179.358	0.0002	0.044173	13795.5	10011.3	0.383776	0.544101	1.24026e+37	2.45968e+37	1.03658e-09	2.05574e-09	16.6062	17.7431	17.9617	18.0894	18.5066	18.4445
95.75	4.69567e+17	6.80601e+23	0.373147	178.402	0.0002	0.0439952	13826.3	10014.5	0.379748	0.541535	1.21179e+37	2.4136e+37	1.01278e-09	2.01723e-09	16.6228	17.7602	17.9792	18.1073	18.5249	18.463
96	4.60717e+17	6.63211e+23	0.369397	177.421	0.0002	0.0438167	13856.5	10017.4	0.375809	0.538965	1.18377e+37	2.36812e+37	9.89367e-10	1.97921e-09	16.6396	17.7773	17.9968	18.1253	18.5432	18.4815
96.25	4.51983e+17	6.462e+23	0.365685	176.42	0.0002	0.0436375	13886.3	10020.1	0.371945	0.536393	1.15621e+37	2.32322e+37	9.66331e-10	1.94169e-09	16.6563	17.7946	18.0144	18.1433	18.5616	18.5001
96.5	4.43364e+17	6.29561e+23	0.36201	175.401	0.0002	0.0434578	13915.6	10022.5	0.368149	0.533817	1.1291e+37	2.27892e+37	9.43675e-10	1.90467e-09	16.6732	17.8118	18.0321	18.1613	18.58	18.5187
96.75	4.34861e+17	6.13289e+23	0.358373	174.367	0.0002	0.0432777	13944.5	10024.6	0.364414	0.531239	1.10244e+37	2.23521e+37	9.21393e-10	1.86813e-09	16.6901	17.8292	18.0499	18.1795	18.5984	18.5374
97	4.2647e+17	5.97375e+23	0.354771	173.318	0.0002	0.0430972	13973	10026.4	0.360736	0.528657	1.07623e+37	2.19209e+37	8.99483e-10	1.83209e-09	16.7071	17.8466	18.0677	18.1976	18.617	18.5561
97.25	4.18192e+17	5.81815e+23	0.351206	172.256	0.0002	0.0429165	14001.1	10027.9	0.357111	0.526073	1.05045e+37	2.14953e+37	8.77938e-10	1.79652e-09	16.7242	17.8641	18.0855	18.2159	18.6355	18.5749
97.5	4.10023e+17	5.66602e+23	0.347677	171.181	0.0002	0.0427354	14028.7	10029	0.353536	0.523485	1.0251e+37	2.10755e+37	8.56752e-10	1.76143e-09	16.7413	17.8816	18.1035	18.2342	18.6541	18.5937
97.75	4.01963e+17	5.5173e+23	0.344183	170.094	0.0002	0.0425541	14056	10029.9	0.350009	0.520893	1.00017e+37	2.06612e+37	8.35921e-10	1.72681e-09	16.7586	17.8993	18.1215	18.2525	18.6728	18.6126
98	3.94011e+17	5.37193e+23	0.340725	168.995	0.0002	0.0423726	14082.8	10030.4	0.346526	0.518298	9.75668e+36	2.02524e+37	8.15439e-10	1.69264e-09	16.7759	17.917	18.1395	18.2709	18.6915	18.6315
98.25	3.86164e+17	5.22984e+23	0.337301	167.884	0.0002	0.0421909	14109.3	10030.7	0.343085	0.515698	9.51574e+36	1.98491e+37	7.95302e-10	1.65894e-09	16.7932	17.9347	18.1576	18.2894	18.7103	18.6505
98.5	3.78422e+17	5.09099e+23	0.333911	166.764	0.0002	0.042009	14135.3	10030.5	0.339684	0.513093	9.27888e+36	1.94511e+37	7.75505e-10	1.62568e-09	16.8107	17.9525	18.1758	18.3079	18.7291	18.6695
98.75	3.70784e+17	4.95531e+23	0.330556	165.633	0.0002	0.0418269	14160.9	10030	0.336322	0.510484	9.04606e+36	1.90586e+37	7.56047e-10	1.59287e-09	16.8282	17.9704	18.1941	18.3264	18.748	18.6885
99	3.6325e+17	4.82275e+23	0.327234	164.492	0.0002	0.0416447	14186.1	10029.2	0.332997	0.507871	8.81725e+36	1.86713e+37	7.36923e-10	1.5605e-09	16.8458	17.9884	18.2124	18.3451	18.7669	18.7077
99.25	3.55818e+17	4.69324e+23	0.323946	163.342	0.0002	0.0414623	14210.9	10028	0.329708	0.505253	8.59241e+36	1.82893e+37	7.18131e-10	1.52857e-09	16.8634	18.0064	18.2308	18.3638	18.7859	18.7268
99.5	3.48489e+17	4.56674e+23	0.320691	162.183	0.0002	0.0412798	14235.3	10026.5	0.326454	0.502631	8.37149e+36	1.79126e+37	6.99668e-10	1.49709e-09	16.8812	18.0245	18.2492	18.3825	18.8049	18.746
99.75	3.41261e+17	4.44318e+23	0.317468	161.015	0.0002	0.0410971	14259.2	10024.6	0.323234	0.500004	8.15451e+36	1.75411e+37	6.81533e-10	1.46604e-09	16.899	18.0427	18.2677	18.4013	18.824	18.7653
100	3.34135e+17	4.32252e+23	0.314278	159.838	0.0002	0.0409144	14282.8	10022.3	0.320048	0.497374	7.94142e+36	1.71748e+37	6.63724e-10	1.43542e-09	16.9169	18.0609	18.2862	18.4201	18.8431	18.7846
